M- wooden source on, visible
Integration time: 8 ms
Average: 5 scans
Nr of pixels used for smoothing: 0
Data measured with spectrometer serial number: 0608009S1
Wave   ;Sample
[nm]   ;[counts]
277.42;15.150
278.02;25.750
278.61;8.7500
279.21;21.350
279.80;12.150
280.40;15.950
280.99;13.150
281.59;12.950
282.18;7.3500
282.78;17.550
283.37;12.550
283.97;19.150
284.56;14.550
285.15;20.150
285.75;9.9500
286.34;6.9500
286.94;0.1500
287.53;23.350
288.13;7.3500
288.72;9.1500
289.31;6.9500
289.91;12.350
290.50;12.550
291.10;22.150
291.69;14.750
292.29;19.350
292.88;7.5500
293.47;16.150
294.07;24.750
294.66;9.1500
295.25;2.9500
295.85;22.750
296.44;14.150
297.04;27.150
297.63;12.750
298.22;14.150
298.82;7.3500
299.41;19.550
300.00;4.3500
300.60;17.750
301.19;1.5500
301.79;18.350
302.38;10.150
302.97;11.550
303.57;17.550
304.16;16.150
304.75;17.950
305.35;23.150
305.94;3.3500
306.53;23.750
307.13;9.1500
307.72;15.550
308.31;14.950
308.90;18.350
309.50;10.750
310.09;21.950
310.68;14.150
311.28;15.550
311.87;12.150
312.46;15.150
313.06;21.350
313.65;26.550
314.24;10.150
314.83;10.750
315.43;0.1500
316.02;9.7500
316.61;17.550
317.20;20.750
317.80;6.7500
318.39;20.750
318.98;17.550
319.57;20.350
320.17;13.350
320.76;25.350
321.35;20.950
321.94;10.950
322.54;17.950
323.13;30.950
323.72;21.350
324.31;19.750
324.90;8.7500
325.50;17.950
326.09;22.550
326.68;24.750
327.27;16.750
327.87;28.550
328.46;30.550
329.05;22.750
329.64;26.950
330.23;17.950
330.82;17.350
331.42;16.350
332.01;18.150
332.60;28.350
333.19;32.150
333.78;30.350
334.37;23.750
334.97;29.550
335.56;20.950
336.15;37.950
336.74;26.350
337.33;35.150
337.92;31.350
338.52;30.350
339.11;39.350
339.70;36.750
340.29;41.550
340.88;39.950
341.47;41.150
342.06;51.150
342.65;34.150
343.25;37.750
343.84;27.350
344.43;26.550
345.02;43.750
345.61;55.350
346.20;49.750
346.79;64.350
347.38;57.350
347.97;66.950
348.56;50.550
349.15;62.750
349.74;70.350
350.34;59.550
350.93;62.350
351.52;72.150
352.11;75.550
352.70;81.750
353.29;66.750
353.88;69.350
354.47;84.350
355.06;103.75
355.65;94.550
356.24;121.75
356.83;126.75
357.42;134.35
358.01;130.55
358.60;131.35
359.19;121.95
359.78;116.75
360.37;96.550
360.96;99.750
361.55;75.950
362.14;81.750
362.73;73.350
363.32;67.350
363.91;71.550
364.50;66.550
365.09;63.150
365.68;82.550
366.27;75.150
366.86;74.950
367.45;76.350
368.04;85.350
368.63;95.950
369.22;85.350
369.81;75.550
370.40;93.150
370.99;79.150
371.58;74.350
372.17;66.950
372.76;69.950
373.34;71.350
373.93;76.550
374.52;70.750
375.11;86.750
375.70;75.150
376.29;81.750
376.88;106.75
377.47;104.75
378.06;107.95
378.65;127.35
379.24;136.35
379.82;152.35
380.41;160.35
381.00;210.55
381.59;212.75
382.18;258.35
382.77;274.35
383.36;306.15
383.95;355.35
384.54;409.15
385.12;437.55
385.71;487.75
386.30;489.55
386.89;451.75
387.48;473.35
388.07;437.75
388.65;374.95
389.24;363.75
389.83;313.35
390.42;307.95
391.01;273.35
391.60;280.75
392.18;270.15
392.77;279.75
393.36;272.95
393.95;280.75
394.54;269.15
395.12;244.95
395.71;227.95
396.30;205.15
396.89;173.75
397.48;169.95
398.06;156.15
398.65;169.15
399.24;153.95
399.83;175.55
400.41;203.15
401.00;205.75
401.59;242.95
402.18;290.15
402.77;322.35
403.35;330.55
403.94;341.75
404.53;346.35
405.11;345.55
405.70;309.75
406.29;285.35
406.88;276.15
407.46;263.35
408.05;280.95
408.64;280.55
409.23;290.35
409.81;271.95
410.40;263.35
410.99;244.95
411.57;259.75
412.16;246.15
412.75;289.35
413.33;391.15
413.92;450.95
414.51;475.15
415.10;512.55
415.68;538.75
416.27;615.75
416.86;689.35
417.44;698.95
418.03;719.95
418.61;745.75
419.20;767.15
419.79;745.15
420.37;692.15
420.96;589.55
421.55;400.95
422.13;332.95
422.72;336.55
423.31;402.35
423.89;460.75
424.48;506.15
425.06;586.95
425.65;621.15
426.24;693.15
426.82;749.15
427.41;788.55
427.99;899.55
428.58;993.75
429.17;1011.5
429.75;1055.9
430.34;1030.9
430.92;1022.0
431.51;910.55
432.10;826.75
432.68;678.95
433.27;629.75
433.85;621.75
434.44;631.35
435.02;544.15
435.61;526.95
436.19;484.55
436.78;451.15
437.37;434.75
437.95;382.75
438.54;357.75
439.12;329.95
439.71;316.35
440.29;281.55
440.88;280.35
441.46;249.95
442.05;241.95
442.63;260.15
443.22;257.95
443.80;258.55
444.39;264.55
444.97;275.35
445.56;279.95
446.14;260.95
446.73;274.35
447.31;266.35
447.90;307.35
448.48;345.95
449.07;367.35
449.65;384.75
450.23;434.95
450.82;430.95
451.40;447.75
451.99;434.75
452.57;417.75
453.16;411.15
453.74;394.95
454.33;406.75
454.91;413.75
455.49;403.95
456.08;425.75
456.66;405.35
457.25;437.55
457.83;434.55
458.41;439.75
459.00;454.75
459.58;461.15
460.17;460.15
460.75;432.95
461.33;406.75
461.92;412.55
462.50;407.55
463.09;429.75
463.67;476.75
464.25;528.15
464.84;599.35
465.42;683.35
466.00;763.35
466.59;813.95
467.17;864.35
467.75;881.15
468.34;876.35
468.92;861.95
469.50;810.75
470.09;748.15
470.67;697.15
471.25;671.35
471.84;619.55
472.42;571.75
473.00;508.35
473.59;487.35
474.17;454.55
474.75;409.15
475.34;374.55
475.92;384.15
476.50;353.95
477.08;352.55
477.67;354.75
478.25;351.15
478.83;333.75
479.42;366.55
480.00;385.35
480.58;385.15
481.16;410.95
481.75;394.75
482.33;389.55
482.91;435.95
483.49;539.75
484.08;564.95
484.66;603.15
485.24;612.15
485.82;617.55
486.40;631.95
486.99;636.35
487.57;480.15
488.15;422.15
488.73;402.15
489.32;396.95
489.90;379.15
490.48;321.75
491.06;322.35
491.64;317.55
492.22;293.95
492.81;261.75
493.39;268.15
493.97;269.95
494.55;271.15
495.13;262.55
495.72;268.15
496.30;264.95
496.88;286.15
497.46;298.75
498.04;301.95
498.62;292.35
499.20;319.35
499.79;298.95
500.37;316.55
500.95;302.95
501.53;320.35
502.11;314.15
502.69;333.35
503.27;357.75
503.85;391.95
504.44;419.95
505.02;444.35
505.60;471.55
506.18;500.15
506.76;489.35
507.34;498.55
507.92;500.75
508.50;513.35
509.08;505.55
509.66;499.55
510.24;548.95
510.82;568.55
511.40;608.55
511.99;673.95
512.57;706.75
513.15;796.15
513.73;936.35
514.31;893.35
514.89;868.55
515.47;818.55
516.05;751.95
516.63;694.75
517.21;616.35
517.79;425.35
518.37;319.95
518.95;304.95
519.53;282.75
520.11;285.15
520.69;256.15
521.27;262.95
521.85;269.95
522.43;291.35
523.01;300.95
523.59;312.35
524.17;327.15
524.75;344.75
525.33;330.15
525.91;330.75
526.49;322.75
527.07;318.15
527.65;292.55
528.23;279.35
528.80;272.55
529.38;297.35
529.96;282.35
530.54;295.15
531.12;311.35
531.70;328.95
532.28;350.55
532.86;391.75
533.44;399.55
534.02;401.35
534.60;395.35
535.18;406.75
535.76;397.35
536.33;369.15
536.91;360.15
537.49;344.95
538.07;322.75
538.65;336.95
539.23;346.95
539.81;351.15
540.39;352.55
540.96;376.55
541.54;388.95
542.12;426.55
542.70;427.35
543.28;400.75
543.86;414.35
544.43;414.55
545.01;398.75
545.59;405.95
546.17;392.55
546.75;372.75
547.33;415.95
547.90;411.75
548.48;395.95
549.06;394.15
549.64;407.55
550.22;408.95
550.79;420.35
551.37;421.95
551.95;423.75
552.53;454.75
553.11;469.55
553.68;487.35
554.26;496.75
554.84;520.75
555.42;487.55
555.99;517.55
556.57;497.55
557.15;464.55
557.73;461.95
558.30;463.55
558.88;444.95
559.46;437.15
560.04;420.75
560.61;475.55
561.19;489.75
561.77;501.35
562.35;474.15
562.92;475.55
563.50;486.55
564.08;504.15
564.65;488.55
565.23;476.55
565.81;467.35
566.38;508.95
566.96;478.35
567.54;485.15
568.11;479.35
568.69;419.55
569.27;406.15
569.84;389.35
570.42;351.15
571.00;337.35
571.57;300.95
572.15;266.35
572.73;267.75
573.30;279.75
573.88;285.35
574.46;275.95
575.03;268.15
575.61;258.75
576.18;258.35
576.76;251.15
577.34;246.55
577.91;239.55
578.49;221.55
579.07;218.15
579.64;215.35
580.22;192.35
580.79;186.75
581.37;178.55
581.94;176.75
582.52;179.75
583.10;181.35
583.67;200.95
584.25;200.35
584.82;235.15
585.40;228.95
585.97;252.35
586.55;262.15
587.12;277.55
587.70;285.75
588.28;315.75
588.85;324.35
589.43;325.35
590.00;294.55
590.58;274.35
591.15;250.15
591.73;227.95
592.30;230.75
592.88;220.35
593.45;208.95
594.03;193.95
594.60;200.75
595.18;212.15
595.75;225.35
596.33;243.15
596.90;265.15
597.48;288.95
598.05;337.75
598.63;372.75
599.20;402.15
599.77;406.35
600.35;464.35
600.92;502.35
601.50;522.15
602.07;543.55
602.65;579.95
603.22;582.75
603.79;585.35
604.37;538.95
604.94;469.55
605.52;421.15
606.09;357.15
606.67;335.75
607.24;278.55
607.81;259.55
608.39;234.35
608.96;243.35
609.54;239.75
610.11;242.35
610.68;235.75
611.26;225.95
611.83;229.55
612.40;207.95
612.98;204.75
613.55;205.35
614.12;186.95
614.70;203.35
615.27;185.95
615.84;167.15
616.42;167.35
616.99;156.55
617.56;145.55
618.14;154.15
618.71;137.35
619.28;141.95
619.86;110.55
620.43;139.35
621.00;116.55
621.58;121.95
622.15;115.35
622.72;134.15
623.30;112.95
623.87;133.55
624.44;132.55
625.01;137.35
625.59;134.75
626.16;144.35
626.73;155.35
627.30;148.15
627.88;138.55
628.45;137.75
629.02;127.95
629.59;134.55
630.17;130.95
630.74;128.95
631.31;107.35
631.88;117.75
632.46;109.55
633.03;123.95
633.60;116.95
634.17;116.35
634.74;123.35
635.32;131.15
635.89;137.75
636.46;169.35
637.03;179.15
637.60;199.95
638.18;204.95
638.75;244.95
639.32;285.95
639.89;291.55
640.46;320.95
641.03;350.95
641.61;347.15
642.18;351.75
642.75;337.35
643.32;292.95
643.89;307.35
644.46;314.55
645.03;311.55
645.60;325.35
646.18;320.15
646.75;326.55
647.32;323.55
647.89;295.95
648.46;265.55
649.03;290.55
649.60;243.95
650.17;242.15
650.74;247.95
651.31;240.55
651.89;252.95
652.46;277.75
653.03;392.15
653.60;1557.8
654.17;2089.8
654.74;2215.1
655.31;2371.4
655.88;2415.9
656.45;2413.4
657.02;2325.1
657.59;1471.3
658.16;321.35
658.73;245.95
659.30;221.95
659.87;196.35
660.44;195.35
661.01;164.55
661.58;159.15
662.15;129.55
662.72;126.55
663.29;119.75
663.86;124.35
664.43;141.15
665.00;207.55
665.57;223.95
666.14;264.35
666.71;250.35
667.28;265.75
667.85;256.15
668.42;256.95
668.99;201.15
669.56;144.55
670.13;150.95
670.70;151.35
671.27;152.35
671.84;163.75
672.41;184.75
672.98;234.75
673.54;250.95
674.11;274.55
674.68;268.35
675.25;260.75
675.82;271.15
676.39;237.55
676.96;163.35
677.53;142.75
678.10;138.35
678.67;137.95
679.23;126.95
679.80;149.75
680.37;136.35
680.94;135.35
681.51;130.55
682.08;150.55
682.65;147.35
683.21;163.15
683.78;156.35
684.35;187.95
684.92;231.95
685.49;252.15
686.06;271.55
686.62;289.55
687.19;282.35
687.76;288.15
688.33;294.55
688.90;243.95
689.46;228.55
690.03;230.55
690.60;217.95
691.17;252.15
691.74;265.15
692.30;310.15
692.87;369.55
693.44;745.35
694.01;3154.9
694.57;4082.4
695.14;4642.5
695.71;5038.0
696.28;5228.8
696.84;5253.0
697.41;5263.4
697.98;3412.1
698.55;1144.2
699.11;820.35
699.68;675.95
700.25;680.75
700.82;706.55
701.38;724.15
701.95;631.95
702.52;614.95
703.08;606.35
703.65;1197.8
704.22;3791.9
704.78;4461.0
705.35;4791.4
705.92;5038.4
706.48;5126.0
707.05;5131.1
707.62;4756.5
708.18;2067.8
708.75;531.95
709.32;412.55
709.88;367.55
710.45;335.95
711.02;319.55
711.58;379.55
712.15;582.95
712.72;654.35
713.28;651.95
713.85;677.35
714.41;657.75
714.98;634.95
715.55;614.75
716.11;344.95
716.68;181.15
717.24;167.35
717.81;156.55
718.38;175.75
718.94;173.75
719.51;182.95
720.07;180.55
720.64;180.35
721.20;187.75
721.77;189.35
722.33;185.35
722.90;186.95
723.47;202.35
724.03;269.55
724.60;791.55
725.16;1020.0
725.73;1089.3
726.29;1189.9
726.86;1201.8
727.42;1228.6
727.99;1207.3
728.55;883.15
729.12;261.95
729.68;231.75
730.25;222.95
730.81;218.95
731.38;212.35
731.94;229.35
732.51;221.35
733.07;248.35
733.64;263.75
734.20;328.35
734.76;475.55
735.33;1313.6
735.89;4228.0
736.46;5080.8
737.02;5695.5
737.59;6074.8
738.15;6193.1
738.72;6057.5
739.28;5634.0
739.84;2389.4
740.41;536.95
740.97;427.95
741.54;408.55
742.10;388.15
742.66;353.75
743.23;352.15
743.79;348.15
744.35;357.75
744.92;337.95
745.48;360.15
746.05;393.35
746.61;487.75
747.17;1092.8
747.74;5563.4
748.30;7414.5
748.86;10491
749.43;11697
749.99;12293
750.55;12675
751.12;12797
751.68;9660.3
752.24;5772.0
752.81;2988.1
753.37;777.55
753.93;605.75
754.50;561.95
755.06;537.95
755.62;510.55
756.18;464.75
756.75;426.75
757.31;385.75
757.87;389.75
758.44;387.55
759.00;454.55
759.56;502.55
760.12;767.35
760.69;5047.4
761.25;8098.8
761.81;8944.2
762.37;9542.5
762.94;10045
763.50;10143
764.06;9622.0
764.62;8284.8
765.18;1470.8
765.75;586.75
766.31;474.95
766.87;469.15
767.43;444.55
767.99;481.15
768.56;492.35
769.12;646.15
769.68;2630.8
770.24;3818.6
770.80;4157.4
771.36;4340.8
771.93;4408.5
772.49;4412.1
773.05;4185.1
773.61;3183.8
774.17;596.95
774.73;438.35
775.29;423.95
775.86;421.55
776.42;374.95
776.98;380.35
777.54;379.55
778.10;348.35
778.66;279.35
779.22;200.75
779.78;169.55
780.34;170.95
780.91;166.35
781.47;157.55
782.03;152.95
782.59;158.35
783.15;146.95
783.71;173.95
784.27;153.55
784.83;160.75
785.39;165.95
785.95;171.75
786.51;168.95
787.07;167.95
787.63;178.55
788.19;182.55
788.75;196.95
789.31;200.15
789.87;216.35
790.43;234.95
790.99;246.15
791.55;428.75
792.11;2193.9
792.67;2797.1
793.23;2997.8
793.79;3274.8
794.35;3388.8
794.91;3363.1
795.47;3181.9
796.03;2350.8
796.59;484.55
797.15;401.35
797.71;1070.3
798.27;2048.1
798.83;4084.9
799.39;4775.0
799.95;5010.8
800.51;5408.4
801.07;5398.0
801.63;5293.5
802.19;3845.4
802.75;2333.1
803.30;508.55
803.86;394.35
804.42;361.55
804.98;355.55
805.54;385.95
806.10;423.15
806.66;494.15
807.22;1018.8
807.78;2946.6
808.33;4203.5
808.89;8564.5
809.45;10096
810.01;10765
810.57;11367
811.13;11432
811.69;10057
812.24;8686.3
812.80;5236.5
813.36;865.75
813.92;555.95
814.48;472.95
815.03;432.55
815.59;408.95
816.15;385.95
816.71;360.55
817.27;345.55
817.82;296.35
818.38;293.75
818.94;248.35
819.50;220.75
820.06;210.15
820.61;205.75
821.17;213.35
821.73;209.35
822.29;200.95
822.84;244.95
823.40;605.75
823.96;1554.6
824.52;1739.2
825.07;1931.3
825.63;2003.8
826.19;1996.6
826.74;2016.2
827.30;1903.2
827.86;823.15
828.42;240.15
828.97;200.55
829.53;193.95
830.09;166.15
830.64;173.35
831.20;174.55
831.76;174.95
832.31;149.95
832.87;164.75
833.43;140.95
833.98;149.35
834.54;132.75
835.10;147.95
835.65;161.55
836.21;182.15
836.77;218.35
837.32;332.35
837.88;1476.8
838.43;2848.4
838.99;3308.4
839.55;4983.4
840.10;6549.0
840.66;7181.1
841.21;7354.4
841.77;7169.0
842.33;5146.1
842.88;4388.5
843.44;3957.1
843.99;1177.3
844.55;490.35
845.11;389.75
845.66;334.15
846.22;275.15
846.77;249.95
847.33;241.75
847.88;238.75
848.44;250.15
848.99;401.95
849.55;1277.9
850.10;1517.6
850.66;1629.9
851.21;1764.8
851.77;1783.2
852.32;1818.3
852.88;1702.9
853.43;1097.6
853.99;248.15
854.54;149.55
855.10;144.15
855.65;137.15
856.21;122.75
856.76;113.75
857.32;121.95
857.87;112.35
858.43;118.35
858.98;103.35
859.54;116.15
860.09;91.750
860.64;94.150
861.20;88.750
861.75;90.150
862.31;80.350
862.86;85.550
863.41;83.550
863.97;254.75
864.52;357.55
865.08;386.55
865.63;389.95
866.18;403.15
866.74;428.75
867.29;430.15
867.85;374.55
868.40;116.95
868.95;70.150
869.51;65.350
870.06;48.550
870.61;57.950
871.17;53.350
871.72;48.950
872.27;40.350
872.83;38.750
873.38;48.350
873.93;50.550
874.49;47.150
875.04;49.750
875.59;38.350
876.15;53.750
876.70;41.750
877.25;36.950
877.80;31.950
878.36;32.150
878.91;18.150
879.46;33.550
880.02;29.950
880.57;28.950
881.12;32.550
881.67;21.750
882.23;31.150
882.78;26.950
883.33;27.150
883.88;38.950
884.44;30.350
884.99;33.950
885.54;22.550
886.09;26.150
886.64;24.950
887.20;22.150
887.75;9.1500
888.30;33.350
888.85;31.750
889.40;22.550
889.96;15.750
890.51;23.550
891.06;26.950
891.61;25.550
892.16;18.550
892.71;36.750
893.27;19.550
893.82;30.550
894.37;22.750
894.92;23.350
895.47;27.950
896.02;32.550
896.57;21.950
897.13;35.350
897.68;39.350
898.23;33.550
898.78;38.150
899.33;46.350
899.88;37.150
900.43;48.350
900.98;34.550
901.53;51.950
902.08;44.150
902.63;32.950
903.19;33.950
903.74;38.550
904.29;31.950
904.84;57.350
905.39;35.750
905.94;62.350
906.49;73.750
907.04;101.75
907.59;125.35
908.14;147.95
908.69;209.35
909.24;852.95
909.79;2485.4
910.34;2883.6
910.89;2960.9
911.44;3289.9
911.99;3351.6
912.54;3329.8
913.09;3396.4
913.64;1770.9
914.19;309.95
914.74;201.55
915.29;156.55
915.84;134.95
916.39;115.15
916.94;125.15
917.49;127.35
918.04;151.55
918.58;155.15
919.13;199.35
919.68;707.95
920.23;949.55
920.78;1025.8
921.33;1069.8
921.88;1146.3
922.43;1168.2
922.98;1164.2
923.53;967.15
924.08;240.15
924.62;115.15
925.17;88.750
925.72;69.350
926.27;72.550
926.82;82.550
927.37;75.150
927.92;71.350
928.46;64.750
929.01;66.550
929.56;56.950
930.11;51.350
930.66;47.150
931.21;44.950
931.75;32.350
932.30;52.150
932.85;111.15
933.40;127.35
933.95;128.35
934.49;149.95
935.04;140.75
935.59;152.75
936.14;133.55
936.69;99.350
937.23;36.150
937.78;28.950
938.33;30.750
938.88;36.350
939.42;28.150
939.97;29.350
940.52;14.750
941.07;24.150
941.61;21.950
942.16;23.150
942.71;14.150
943.25;22.150
943.80;14.150
944.35;17.550
944.90;22.350
945.44;26.150
945.99;23.350
946.54;15.750
947.08;10.950
947.63;12.550
948.18;10.350
948.72;18.350
949.27;12.950
949.82;14.950
950.36;5.3500
950.91;16.150
951.46;11.150
952.00;15.150
952.55;19.950
953.09;17.550
953.64;4.3500
954.19;12.350
954.73;6.5500
955.28;16.750
955.82;15.350
956.37;10.150
956.92;8.3500
957.46;19.950
958.01;12.550
958.55;18.150
959.10;19.750
959.65;33.150
960.19;25.950
960.74;26.950
961.28;26.750
961.83;44.550
962.37;57.550
962.92;308.15
963.46;574.95
964.01;614.15
964.55;593.55
965.10;671.15
965.64;721.55
966.19;711.55
966.73;648.15
967.28;222.35
967.82;60.150
968.37;53.750
968.91;44.550
969.46;36.350
970.00;32.150
970.55;38.550
971.09;17.350
971.64;26.750
972.18;21.950
972.73;13.750
973.27;13.350
973.82;7.7500
974.36;7.5500
974.90;32.950
975.45;57.150
975.99;150.15
976.54;161.95
977.08;157.75
977.62;162.35
978.17;183.75
978.71;162.55
979.26;175.35
979.80;88.750
980.34;19.350
980.89;9.9500
981.43;18.950
981.97;5.7500
982.52;11.350
983.06;3.5500
983.61;12.750
984.15;11.750
984.69;13.950
985.24;-2.8500
985.78;10.750
986.32;9.3500
986.87;7.1500
987.41;9.5500
987.95;15.150
988.49;16.150
989.04;13.550
989.58;-1.6500
990.12;12.750
990.67;2.5500
991.21;10.750
991.75;6.1500
992.29;5.1500
992.84;12.350
993.38;8.3500
993.92;3.1500
994.46;13.950
995.01;3.3500
995.55;8.7500
996.09;-0.2500
996.63;14.550
997.18;2.7500
997.72;-2.2500
998.26;-0.2500
998.80;6.7500
999.34;5.7500
999.89;-2.2500
1000.43;0.7500
1000.97;6.7500
1001.51;10.150
1002.05;12.950
1002.60;7.3500
1003.14;7.1500
1003.68;5.9500
1004.22;7.5500
1004.76;5.1500
1005.30;14.150
1005.84;7.3500
1006.39;8.7500
1006.93;2.1500
1007.47;7.9500
1008.01;1.9500
1008.55;-1.6500
1009.09;9.7500
1009.63;4.9500
1010.17;9.5500
1010.72;14.150
1011.26;4.3500
1011.80;2.9500
1012.34;2.1500
1012.88;1.1500
1013.42;7.7500
1013.96;10.750
1014.50;7.1500
1015.04;-4.4500
1015.58;1.7500
1016.12;17.150
1016.66;6.3500
1017.20;0.9500
1017.74;1.1500
1018.28;-1.2500
1018.82;-1.6500
1019.36;-2.6500
1019.90;1.9500
1020.44;7.1500
1020.98;8.3500
1021.52;3.5500
1022.06;8.7500
1022.60;8.1500
1023.14;-4.2500
1023.68;11.350
1024.22;10.950
1024.76;5.5500
1025.30;4.7500
1025.84;10.750
1026.38;3.1500
1026.92;9.3500
1027.46;-3.4500
1028.00;9.7500
1028.54;7.7500
1029.08;6.3500
1029.62;6.9500
1030.16;5.5500
1030.70;-7.4500
1031.23;3.1500
1031.77;-8.8500
1032.31;10.950
1032.85;1.5500
1033.39;-1.4500
1033.93;-5.2500
1034.47;11.550
1035.01;3.5500
1035.54;10.750
1036.08;-5.0500
1036.62;8.3500
1037.16;-4.2500
1037.70;-5.2500
1038.24;1.5500
1038.78;1.7500
1039.31;-4.2500
1039.85;10.750
1040.39;4.5500
1040.93;-0.4500
1041.47;1.1500
1042.00;5.9500
1042.54;-2.4500
1043.08;3.3500
1043.62;-4.8500
1044.16;21.550
1044.69;12.150
1045.23;15.150
1045.77;22.550
1046.31;22.950
1046.84;27.350
1047.38;21.550
1047.92;23.350
1048.46;17.150
1048.99;3.7500
1049.53;4.1500
1050.07;0.1500
1050.61;13.750
1051.14;-2.6500
1051.68;6.3500
1052.22;-5.4500
1052.75;9.5500
1053.29;-5.4500
1053.83;-1.4500
1054.36;-4.0500
1054.90;-1.8500
1055.44;1.3500
1055.97;-3.8500
1056.51;-3.8500
1057.05;3.7500
1057.58;-1.0500
1058.12;7.9500
1058.66;3.5500
1059.19;1.1500
1059.73;0.1500
1060.27;7.3500
1060.80;3.9500
1061.34;4.3500
1061.87;-4.8500
1062.41;-4.0500
1062.95;-9.2500
1063.48;-5.0500
1064.02;-2.0500
1064.55;12.350
1065.09;-0.8500
1065.63;10.950
1066.16;18.950
1066.70;7.3500
1067.23;18.150
1067.77;6.3500
1068.30;4.5500
1068.84;14.150
1069.37;-0.05000
1069.91;12.150
1070.44;3.1500
1070.98;5.5500
1071.52;-2.6500
1072.05;2.1500
1072.59;4.7500
1073.12;3.9500
1073.66;-13.450
1074.19;3.3500
1074.73;4.1500
1075.26;8.7500
1075.79;2.1500
1076.33;1.1500
1076.86;6.1500
1077.40;6.9500
1077.93;-0.4500
1078.47;5.1500
1079.00;3.5500
1079.54;1.5500
1080.07;-6.0500
1080.60;12.950
1081.14;-3.2500
1081.67;5.7500
1082.21;0.3500
1082.74;4.7500
1083.28;5.7500
1083.81;5.1500
1084.34;-3.6500
1084.88;9.3500
1085.41;-0.05000
1085.94;5.5500
1086.48;8.1500
1087.01;18.550
1087.55;2.1500
1088.08;5.3500
1088.61;-8.6500
1089.15;5.5500
1089.68;3.5500
1090.21;2.3500
1090.75;1.5500
1091.28;5.7500
1091.81;-2.6500
1092.35;9.7500
1092.88;1.1500
1093.41;17.350
1093.94;2.3500
1094.48;-0.6500
1095.01;-1.8500
1095.54;3.7500
1096.08;0.7500
1096.61;4.9500
1097.14;-8.8500
1097.67;0.7500
1098.21;-1.4500
1098.74;3.1500
1099.27;2.7500
1099.80;2.3500
1100.34;8.9500
