M- wooden source off, visible
Integration time: 8 ms
Average: 5 scans
Nr of pixels used for smoothing: 0
Data measured with spectrometer serial number: 0608009S1
Wave   ;Sample
[nm]   ;[counts]
277.42;-2.1500
278.02;-0.2000
278.61;-5.3500
279.21;-0.4000
279.80;2.0500
280.40;4.0000
280.99;-1.1500
281.59;-6.4000
282.18;-15.150
282.78;-2.0000
283.37;-0.9500
283.97;0.4000
284.56;8.0500
285.15;-15.000
285.75;-11.150
286.34;-4.2000
286.94;-7.3500
287.53;4.8000
288.13;-11.750
288.72;2.2000
289.31;6.4500
289.91;-5.4000
290.50;0.2500
291.10;-2.4000
291.69;-14.750
292.29;7.2000
292.88;-2.9500
293.47;-2.4000
294.07;-4.7500
294.66;-9.6000
295.25;-4.7500
295.85;-2.6000
296.44;-7.7500
297.04;-6.0000
297.63;-13.350
298.22;-2.8000
298.82;1.2500
299.41;-12.400
300.00;-1.7500
300.60;-2.4000
301.19;-6.5500
301.79;-3.6000
302.38;-7.9500
302.97;-0.6000
303.57;-0.9500
304.16;-4.0000
304.75;-3.7500
305.35;-1.2000
305.94;-6.7500
306.53;-0.2000
307.13;-14.150
307.72;-6.6000
308.31;4.4500
308.90;-12.200
309.50;3.4500
310.09;-1.0000
310.68;-7.9500
311.28;-9.4000
311.87;-5.5500
312.46;-5.4000
313.06;-4.1500
313.65;-13.200
314.24;-0.9500
314.83;-8.2000
315.43;2.0500
316.02;1.0000
316.61;-6.1500
317.20;-5.4000
317.80;4.2500
318.39;-14.000
318.98;2.8500
319.57;-6.8000
320.17;-6.3500
320.76;-0.2000
321.35;-2.9500
321.94;-5.4000
322.54;2.6500
323.13;-5.8000
323.72;-8.3500
324.31;-9.2000
324.90;10.250
325.50;1.8000
326.09;-0.5500
326.68;-7.0000
327.27;-5.5500
327.87;-10.200
328.46;-7.9500
329.05;-3.2000
329.64;3.2500
330.23;-7.8000
330.82;-9.9500
331.42;-3.2000
332.01;7.6500
332.60;-17.000
333.19;-10.350
333.78;-3.0000
334.37;-2.1500
334.97;-0.8000
335.56;-10.550
336.15;2.2000
336.74;-1.3500
337.33;-1.6000
337.92;1.8500
338.52;-5.0000
339.11;-4.3500
339.70;0.6000
340.29;-7.1500
340.88;2.0000
341.47;1.4500
342.06;-8.0000
342.65;-3.1500
343.25;-9.8000
343.84;1.6500
344.43;-3.6000
345.02;1.2500
345.61;-3.4000
346.20;0.6500
346.79;0.2000
347.38;-13.550
347.97;-0.4000
348.56;-0.7500
349.15;0
349.74;-3.5500
350.34;-0.2000
350.93;2.8500
351.52;-4.6000
352.11;-9.3500
352.70;-3.4000
353.29;-4.7500
353.88;-4.4000
354.47;-18.350
355.06;-2.0000
355.65;1.0500
356.24;-6.2000
356.83;2.4500
357.42;-9.2000
358.01;-3.7500
358.60;-0.8000
359.19;-0.5500
359.78;5.6000
360.37;5.0500
360.96;-11.600
361.55;-0.9500
362.14;-8.8000
362.73;3.4500
363.32;6.8000
363.91;0.2500
364.50;-6.2000
365.09;-2.7500
365.68;-9.2000
366.27;-6.3500
366.86;-4.8000
367.45;0.4500
368.04;-0.6000
368.63;-12.150
369.22;0
369.81;-0.5500
370.40;2.6000
370.99;-2.3500
371.58;-5.4000
372.17;-4.7500
372.76;1.0000
373.34;-12.950
373.93;-10.0000
374.52;-18.750
375.11;-5.6000
375.70;-5.9500
376.29;-6.0000
376.88;-11.550
377.47;0.2000
378.06;-5.7500
378.65;-2.8000
379.24;-1.7500
379.82;-1.0000
380.41;4.2500
381.00;-14.600
381.59;4.8500
382.18;2.4000
382.77;1.6500
383.36;-10.800
383.95;-11.950
384.54;-3.2000
385.12;3.0500
385.71;-16.600
386.30;1.0500
386.89;-3.0000
387.48;-6.1500
388.07;-0.6000
388.65;-5.3500
389.24;10.600
389.83;1.8500
390.42;0.2000
391.01;4.6500
391.60;9.4000
392.18;-2.7500
392.77;-9.6000
393.36;-6.5500
393.95;0.4000
394.54;-0.5500
395.12;-9.6000
395.71;3.6500
396.30;-1.0000
396.89;-11.950
397.48;-6.0000
398.06;-5.7500
398.65;3.2000
399.24;12.250
399.83;-16.000
400.41;1.4500
401.00;6.4000
401.59;-4.7500
402.18;0.2000
402.77;-11.950
403.35;-3.0000
403.94;-1.1500
404.53;-8.2000
405.11;-3.5500
405.70;2.4000
406.29;-13.350
406.88;-3.2000
407.46;-11.150
408.05;7.8000
408.64;2.2500
409.23;-5.6000
409.81;-0.3500
410.40;7.4000
410.99;-5.3500
411.57;-2.4000
412.16;-9.7500
412.75;-2.8000
413.33;0.05000
413.92;-0.2000
414.51;3.0500
415.10;-0.2000
415.68;-2.9500
416.27;-8.4000
416.86;-3.9500
417.44;0.2000
418.03;7.8500
418.61;1.0000
419.20;-4.3500
419.79;-2.2000
420.37;-2.7500
420.96;2.0000
421.55;-4.5500
422.13;-2.2000
422.72;-0.3500
423.31;-19.800
423.89;4.6500
424.48;-14.400
425.06;-4.9500
425.65;-0.6000
426.24;-9.5500
426.82;5.8000
427.41;8.2500
427.99;-3.0000
428.58;0.8500
429.17;-1.8000
429.75;-4.3500
430.34;5.4000
430.92;-2.7500
431.51;-6.8000
432.10;4.0500
432.68;-1.4000
433.27;-6.1500
433.85;-4.0000
434.44;-3.5500
435.02;-7.2000
435.61;-17.550
436.19;1.0000
436.78;7.2500
437.37;-3.8000
437.95;-3.3500
438.54;-3.4000
439.12;-12.750
439.71;-1.8000
440.29;-2.9500
440.88;3.4000
441.46;4.6500
442.05;-3.0000
442.63;-9.9500
443.22;-10.200
443.80;-4.7500
444.39;-0.6000
444.97;-9.5500
445.56;3.8000
446.14;-1.5500
446.73;-3.2000
447.31;-5.9500
447.90;-14.600
448.48;-9.5500
449.07;-3.0000
449.65;-4.3500
450.23;-2.8000
450.82;0.8500
451.40;0.6000
451.99;-13.750
452.57;-6.6000
453.16;-7.7500
453.74;4.8000
454.33;-5.7500
454.91;1.4000
455.49;0.4500
456.08;1.6000
456.66;-8.9500
457.25;-9.8000
457.83;-6.1500
458.41;1.2000
459.00;0.8500
459.58;-3.2000
460.17;2.8500
460.75;-8.6000
461.33;-2.5500
461.92;-11.400
462.50;-5.9500
463.09;-8.0000
463.67;-15.350
464.25;0.6000
464.84;0.8500
465.42;8.8000
466.00;-5.3500
466.59;-12.200
467.17;-8.5500
467.75;-1.6000
468.34;-2.5500
468.92;-4.4000
469.50;-0.3500
470.09;-15.800
470.67;-9.3500
471.25;-7.8000
471.84;0.05000
472.42;1.8000
473.00;-3.7500
473.59;7.2000
474.17;-1.3500
474.75;-6.6000
475.34;1.8500
475.92;-11.600
476.50;-14.750
477.08;8.8000
477.67;-2.7500
478.25;-5.4000
478.83;5.8500
479.42;-5.6000
480.00;-7.1500
480.58;-4.6000
481.16;-3.9500
481.75;-5.8000
482.33;-1.5500
482.91;0.4000
483.49;9.6500
484.08;-2.0000
484.66;-2.3500
485.24;-10.400
485.82;-10.550
486.40;-7.4000
486.99;5.2500
487.57;-0.6000
488.15;0.05000
488.73;-9.2000
489.32;-9.9500
489.90;5.4000
490.48;-1.3500
491.06;0
491.64;6.0500
492.22;-11.200
492.81;-8.5500
493.39;1.0000
493.97;-4.7500
494.55;-9.0000
495.13;-1.9500
495.72;-8.2000
496.30;6.6500
496.88;-3.8000
497.46;-6.5500
498.04;-3.8000
498.62;-9.7500
499.20;0.2000
499.79;-8.5500
500.37;-0.4000
500.95;-0.9500
501.53;-11.600
502.11;-6.1500
502.69;-11.600
503.27;2.4500
503.85;-6.4000
504.44;-7.5500
505.02;-10.600
505.60;-1.1500
506.18;-4.6000
506.76;-9.3500
507.34;-10.800
507.92;-2.3500
508.50;-15.800
509.08;-4.7500
509.66;-1.0000
510.24;-9.1500
510.82;-12.000
511.40;-13.550
511.99;-4.6000
512.57;-0.7500
513.15;-3.4000
513.73;-10.550
514.31;-4.0000
514.89;-8.7500
515.47;-13.200
516.05;-7.1500
516.63;0.8000
517.21;-12.150
517.79;-7.6000
518.37;-2.1500
518.95;-10.800
519.53;1.4500
520.11;-8.2000
520.69;-11.950
521.27;-9.8000
521.85;-3.9500
522.43;-5.0000
523.01;-7.1500
523.59;-7.0000
524.17;-3.7500
524.75;-0.8000
525.33;-14.950
525.91;-7.4000
526.49;-4.5500
527.07;-17.800
527.65;0.4500
528.23;-6.4000
528.80;1.4500
529.38;-4.4000
529.96;-18.150
530.54;-0.2000
531.12;-4.5500
531.70;-4.2000
532.28;-6.5500
532.86;-8.2000
533.44;-7.7500
534.02;-2.2000
534.60;-18.150
535.18;-4.0000
535.76;-0.1500
536.33;-6.0000
536.91;7.6500
537.49;-1.0000
538.07;-6.5500
538.65;-7.2000
539.23;-14.950
539.81;-14.000
540.39;2.2500
540.96;1.8000
541.54;-6.5500
542.12;-11.600
542.70;-8.3500
543.28;-4.0000
543.86;-10.750
544.43;-5.0000
545.01;-1.3500
545.59;-14.600
546.17;1.8500
546.75;-1.0000
547.33;-4.1500
547.90;4.0000
548.48;-4.9500
549.06;-10.600
549.64;0.8500
550.22;4.2000
550.79;3.4500
551.37;-10.600
551.95;-6.1500
552.53;4.6000
553.11;-6.3500
553.68;-9.6000
554.26;5.2500
554.84;-10.400
555.42;-3.1500
555.99;-5.2000
556.57;0.2500
557.15;3.0000
557.73;-18.350
558.30;-7.8000
558.88;2.6500
559.46;4.2000
560.04;-10.550
560.61;-8.0000
561.19;-11.950
561.77;9.4000
562.35;-2.7500
562.92;-7.6000
563.50;2.2500
564.08;-6.4000
564.65;0.8500
565.23;-2.0000
565.81;2.6500
566.38;-2.4000
566.96;-10.750
567.54;-12.600
568.11;5.4500
568.69;-6.6000
569.27;-7.9500
569.84;-10.200
570.42;-6.7500
571.00;-2.2000
571.57;1.6500
572.15;-4.0000
572.73;-0.9500
573.30;-4.6000
573.88;-8.5500
574.46;-1.8000
575.03;-2.3500
575.61;-5.8000
576.18;-14.550
576.76;-8.2000
577.34;-5.3500
577.91;2.8000
578.49;0.6500
579.07;-8.4000
579.64;-4.9500
580.22;-3.6000
580.79;-2.9500
581.37;-7.6000
581.94;-7.5500
582.52;-11.000
583.10;-11.150
583.67;-10.0000
584.25;-7.3500
584.82;3.2000
585.40;-1.9500
585.97;-5.2000
586.55;-15.150
587.12;7.4000
587.70;-2.3500
588.28;-11.400
588.85;-9.3500
589.43;0.8000
590.00;-3.3500
590.58;-13.800
591.15;-2.9500
591.73;-2.8000
592.30;-9.1500
592.88;-3.4000
593.45;-7.9500
594.03;0.4000
594.60;-4.3500
595.18;-14.000
595.75;-0.1500
596.33;-1.2000
596.90;-3.3500
597.48;-14.800
598.05;-10.550
598.63;-4.8000
599.20;1.6500
599.77;-10.200
600.35;-2.1500
600.92;-6.8000
601.50;-4.5500
602.07;-14.400
602.65;-6.1500
603.22;-3.4000
603.79;-6.3500
604.37;-7.0000
604.94;-7.1500
605.52;-6.8000
606.09;0.4500
606.67;-10.200
607.24;3.0500
607.81;7.4000
608.39;-4.1500
608.96;4.8000
609.54;-3.7500
610.11;0.6000
610.68;-6.5500
611.26;-15.200
611.83;1.0500
612.40;-8.2000
612.98;-6.1500
613.55;-0.8000
614.12;-2.1500
614.70;3.6000
615.27;-2.9500
615.84;5.2000
616.42;-6.3500
616.99;-8.2000
617.56;6.4500
618.14;6.2000
618.71;-8.1500
619.28;8.2000
619.86;-3.7500
620.43;-9.2000
621.00;-6.5500
621.58;3.8000
622.15;-7.7500
622.72;-3.0000
623.30;-10.350
623.87;-2.0000
624.44;-0.9500
625.01;-5.4000
625.59;1.0500
626.16;3.6000
626.73;-0.5500
627.30;-1.6000
627.88;-2.1500
628.45;0
629.02;-2.7500
629.59;-11.200
630.17;-2.7500
630.74;-3.2000
631.31;1.8500
631.88;-10.200
632.46;-3.5500
633.03;-9.4000
633.60;-3.1500
634.17;-9.8000
634.74;-12.550
635.32;-11.000
635.89;-4.7500
636.46;4.4000
637.03;-1.7500
637.60;4.0000
638.18;-8.1500
638.75;-8.4000
639.32;-7.7500
639.89;-8.6000
640.46;-4.9500
641.03;-11.200
641.61;-13.950
642.18;-14.000
642.75;-7.7500
643.32;-8.6000
643.89;-14.350
644.46;20.800
645.03;-9.7500
645.60;0
646.18;-13.950
646.75;-4.2000
647.32;-7.3500
647.89;-5.4000
648.46;-5.5500
649.03;4.2000
649.60;-13.950
650.17;-2.4000
650.74;3.2500
651.31;-3.8000
651.89;-0.7500
652.46;-8.2000
653.03;-4.9500
653.60;0.4000
654.17;-4.9500
654.74;-12.400
655.31;4.4500
655.88;-9.0000
656.45;-7.9500
657.02;-2.8000
657.59;-1.3500
658.16;4.0000
658.73;-8.3500
659.30;-4.2000
659.87;7.2500
660.44;-5.0000
661.01;-10.750
661.58;-7.2000
662.15;-9.5500
662.72;1.2000
663.29;-4.3500
663.86;-6.0000
664.43;-2.7500
665.00;-10.0000
665.57;-3.9500
666.14;-4.0000
666.71;-2.3500
667.28;-0.4000
667.85;-6.9500
668.42;-3.6000
668.99;4.4500
669.56;-0.2000
670.13;-4.1500
670.70;-11.200
671.27;-4.7500
671.84;4.0000
672.41;-3.7500
672.98;-9.0000
673.54;9.8500
674.11;-11.400
674.68;1.8500
675.25;-4.4000
675.82;-3.3500
676.39;4.2000
676.96;-11.950
677.53;-8.0000
678.10;1.2500
678.67;-6.8000
679.23;-5.3500
679.80;-14.600
680.37;-11.550
680.94;7.8000
681.51;-12.750
682.08;-5.0000
682.65;4.2500
683.21;1.0000
683.78;-6.1500
684.35;-4.0000
684.92;-9.1500
685.49;6.6000
686.06;-15.550
686.62;-7.2000
687.19;7.0500
687.76;0.4000
688.33;-3.9500
688.90;-3.4000
689.46;0.6500
690.03;-6.6000
690.60;-0.7500
691.17;-6.0000
691.74;-1.1500
692.30;-2.6000
692.87;-4.1500
693.44;0.2000
694.01;-6.1500
694.57;0
695.14;-7.3500
695.71;-7.0000
696.28;-7.3500
696.84;-0.8000
697.41;-13.550
697.98;-9.0000
698.55;-8.5500
699.11;3.8000
699.68;-8.5500
700.25;-5.2000
700.82;-3.3500
701.38;0.8000
701.95;-12.150
702.52;-5.4000
703.08;-6.3500
703.65;-5.4000
704.22;-3.3500
704.78;-7.6000
705.35;-6.1500
705.92;-5.8000
706.48;-11.750
707.05;-5.6000
707.62;-6.3500
708.18;-4.4000
708.75;-1.9500
709.32;-7.6000
709.88;-8.3500
710.45;-7.6000
711.02;-2.1500
711.58;-9.6000
712.15;4.2500
712.72;-3.4000
713.28;-12.350
713.85;-2.4000
714.41;-7.9500
714.98;1.4000
715.55;0.4500
716.11;-12.400
716.68;-5.1500
717.24;-2.4000
717.81;-7.1500
718.38;-7.8000
718.94;-7.7500
719.51;5.2000
720.07;-3.3500
720.64;-2.4000
721.20;4.8500
721.77;-1.6000
722.33;-7.7500
722.90;-8.2000
723.47;-15.550
724.03;-2.2000
724.60;-6.5500
725.16;-10.800
725.73;-10.550
726.29;-7.2000
726.86;-4.7500
727.42;0.6000
727.99;-10.950
728.55;0
729.12;-3.7500
729.68;-8.6000
730.25;2.4500
730.81;-5.0000
731.38;-2.3500
731.94;-20.400
732.51;-10.750
733.07;-3.4000
733.64;-2.9500
734.20;-6.6000
734.76;-6.7500
735.33;-5.6000
735.89;-0.9500
736.46;-1.4000
737.02;-13.150
737.59;-1.0000
738.15;-6.3500
738.72;-2.4000
739.28;-1.9500
739.84;0.8000
740.41;-3.1500
740.97;-7.0000
741.54;-5.1500
742.10;-2.0000
742.66;-4.3500
743.23;2.4000
743.79;-4.1500
744.35;2.8000
744.92;-11.950
745.48;-5.0000
746.05;-12.550
746.61;-9.2000
747.17;2.8500
747.74;-9.0000
748.30;-9.1500
748.86;3.6000
749.43;-6.1500
749.99;0.8000
750.55;-12.350
751.12;2.0000
751.68;0.8500
752.24;-1.6000
752.81;-2.5500
753.37;-0.4000
753.93;-4.3500
754.50;3.6000
755.06;-9.7500
755.62;-10.200
756.18;3.6500
756.75;-5.8000
757.31;-2.7500
757.87;3.0000
758.44;-4.9500
759.00;-2.0000
759.56;-14.350
760.12;-13.000
760.69;3.6500
761.25;0.6000
761.81;-2.5500
762.37;-6.6000
762.94;-2.1500
763.50;-2.4000
764.06;-6.7500
764.62;-6.0000
765.18;3.8500
765.75;-7.4000
766.31;-1.1500
766.87;1.0000
767.43;1.6500
767.99;1.0000
768.56;-3.5500
769.12;-10.0000
769.68;-2.5500
770.24;0.4000
770.80;-6.9500
771.36;-9.4000
771.93;-11.550
772.49;-3.2000
773.05;-4.1500
773.61;-8.0000
774.17;-0.9500
774.73;-10.200
775.29;6.2500
775.86;-1.2000
776.42;0.8500
776.98;4.6000
777.54;-8.5500
778.10;-5.8000
778.66;-0.1500
779.22;2.0000
779.78;0.2500
780.34;-12.200
780.91;-4.5500
781.47;-9.0000
782.03;-5.5500
782.59;-2.6000
783.15;-2.7500
783.71;-10.400
784.27;1.0500
784.83;2.6000
785.39;-2.9500
785.95;-7.4000
786.51;-11.750
787.07;0.8000
787.63;-0.9500
788.19;4.2000
788.75;-6.3500
789.31;-6.4000
789.87;-9.3500
790.43;2.2000
790.99;-2.1500
791.55;-0.4000
792.11;-1.9500
792.67;0.4000
793.23;-10.350
793.79;0.6000
794.35;0.2500
794.91;-3.2000
795.47;-6.5500
796.03;-7.6000
796.59;0.8500
797.15;-1.8000
797.71;-3.5500
798.27;-11.600
798.83;-6.9500
799.39;-5.8000
799.95;-5.3500
800.51;0.6000
801.07;-4.1500
801.63;-4.2000
802.19;-3.5500
802.75;-15.000
803.30;-11.150
803.86;-5.2000
804.42;-9.5500
804.98;-5.2000
805.54;-9.7500
806.10;-4.0000
806.66;-5.7500
807.22;-8.0000
807.78;-8.9500
808.33;-10.400
808.89;-4.9500
809.45;-8.2000
810.01;-0.3500
810.57;-4.6000
811.13;-9.5500
811.69;-8.6000
812.24;4.0500
812.80;2.6000
813.36;-12.550
813.92;-9.8000
814.48;-3.9500
815.03;-3.2000
815.59;-1.7500
816.15;-5.8000
816.71;-10.550
817.27;-6.6000
817.82;2.0500
818.38;8.0000
818.94;-1.9500
819.50;-1.0000
820.06;-8.1500
820.61;-11.800
821.17;-9.3500
821.73;-4.2000
822.29;-8.1500
822.84;-0.2000
823.40;-2.3500
823.96;-8.6000
824.52;-8.9500
825.07;-6.2000
825.63;4.6500
826.19;3.4000
826.74;-0.3500
827.30;3.4000
827.86;-6.1500
828.42;-3.4000
828.97;-3.7500
829.53;-8.0000
830.09;-5.1500
830.64;0.4000
831.20;0.6500
831.76;-4.0000
832.31;-7.7500
832.87;-1.0000
833.43;-6.5500
833.98;-11.400
834.54;-3.1500
835.10;-6.8000
835.65;0.6500
836.21;2.2000
836.77;-6.7500
837.32;4.4000
837.88;-0.9500
838.43;-10.400
838.99;-2.9500
839.55;-8.8000
840.10;3.6500
840.66;-5.2000
841.21;-8.1500
841.77;-0.2000
842.33;1.0500
842.88;-13.400
843.44;-2.5500
843.99;-7.8000
844.55;-2.5500
845.11;1.8000
845.66;-4.3500
846.22;-9.0000
846.77;-8.9500
847.33;-10.600
847.88;-5.3500
848.44;-4.4000
848.99;-0.5500
849.55;-0.4000
850.10;-10.950
850.66;-11.400
851.21;-1.1500
851.77;2.2000
852.32;-3.7500
852.88;-1.4000
853.43;-1.9500
853.99;-2.6000
854.54;-2.9500
855.10;-5.0000
855.65;0.4500
856.21;-6.6000
856.76;-6.1500
857.32;-9.4000
857.87;-6.7500
858.43;-2.8000
858.98;-12.750
859.54;-16.400
860.09;-10.150
860.64;-6.2000
861.20;0.4500
861.75;-23.800
862.31;-3.9500
862.86;-7.6000
863.41;-14.950
863.97;-2.6000
864.52;-11.750
865.08;2.2000
865.63;-1.7500
866.18;-6.6000
866.74;2.0500
867.29;3.2000
867.85;-7.3500
868.40;-9.0000
868.95;-4.7500
869.51;-5.8000
870.06;-10.150
870.61;-12.600
871.17;-1.3500
871.72;-8.4000
872.27;-2.9500
872.83;-4.6000
873.38;-4.9500
873.93;-15.400
874.49;-1.1500
875.04;-9.8000
875.59;-5.9500
876.15;-1.4000
876.70;-12.550
877.25;-13.600
877.80;-13.750
878.36;-8.8000
878.91;2.2500
879.46;-6.0000
880.02;-10.950
880.57;-8.4000
881.12;-15.550
881.67;-4.0000
882.23;-0.1500
882.78;-9.8000
883.33;-4.5500
883.88;-14.600
884.44;-10.750
884.99;8.6000
885.54;-8.1500
886.09;-4.8000
886.64;-3.1500
887.20;-3.4000
887.75;-9.9500
888.30;-11.400
888.85;-4.5500
889.40;-3.8000
889.96;-15.950
890.51;-2.2000
891.06;-10.750
891.61;1.0000
892.16;-3.3500
892.71;-14.800
893.27;-7.9500
893.82;-4.0000
894.37;-15.750
894.92;-11.600
895.47;-7.1500
896.02;3.8000
896.57;-11.550
897.13;-13.200
897.68;-10.550
898.23;-12.400
898.78;-6.3500
899.33;-6.4000
899.88;6.6500
900.43;-2.0000
900.98;-8.3500
901.53;-18.800
902.08;-7.1500
902.63;-5.2000
903.19;-7.7500
903.74;-4.2000
904.29;-4.5500
904.84;0.2000
905.39;-2.9500
905.94;-9.8000
906.49;-3.5500
907.04;-6.8000
907.59;4.6500
908.14;-3.8000
908.69;0.6500
909.24;6.0000
909.79;3.0500
910.34;-2.4000
910.89;-4.1500
911.44;-2.0000
911.99;-2.7500
912.54;-9.8000
913.09;-3.3500
913.64;-3.2000
914.19;-8.1500
914.74;-7.2000
915.29;-9.5500
915.84;-3.4000
916.39;-7.9500
916.94;-4.4000
917.49;-4.5500
918.04;8.0000
918.58;-3.7500
919.13;-2.2000
919.68;2.8500
920.23;-7.0000
920.78;4.6500
921.33;-8.2000
921.88;-10.750
922.43;-2.8000
922.98;0.6500
923.53;5.2000
924.08;-7.7500
924.62;-4.6000
925.17;-2.5500
925.72;-2.2000
926.27;-11.350
926.82;3.2000
927.37;-1.7500
927.92;-9.8000
928.46;-6.5500
929.01;-4.6000
929.56;-0.5500
930.11;-5.6000
930.66;-5.7500
931.21;-5.4000
931.75;3.8500
932.30;-4.0000
932.85;-8.7500
933.40;-9.4000
933.95;0.4500
934.49;-9.4000
935.04;-17.150
935.59;-6.2000
936.14;-6.5500
936.69;-8.0000
937.23;-13.550
937.78;-8.0000
938.33;-1.9500
938.88;-0.2000
939.42;-7.7500
939.97;-5.4000
940.52;-1.1500
941.07;-6.2000
941.61;-9.7500
942.16;-13.800
942.71;-5.7500
943.25;-0.4000
943.80;-0.5500
944.35;-1.8000
944.90;-0.9500
945.44;-9.6000
945.99;-0.3500
946.54;-8.4000
947.08;0.8500
947.63;4.6000
948.18;-11.350
948.72;-5.0000
949.27;-2.1500
949.82;-5.6000
950.36;0.4500
950.91;-8.0000
951.46;-6.5500
952.00;-10.0000
952.55;-17.350
953.09;-3.0000
953.64;1.0500
954.19;-15.400
954.73;-3.5500
955.28;-15.200
955.82;1.2500
956.37;2.0000
956.92;-7.1500
957.46;-11.400
958.01;-2.5500
958.55;-7.2000
959.10;-3.9500
959.65;-5.8000
960.19;2.4500
960.74;-2.8000
961.28;-11.350
961.83;0
962.37;-4.1500
962.92;-12.400
963.46;-1.1500
964.01;-6.6000
964.55;2.2500
965.10;10.400
965.64;-3.3500
966.19;0.4000
966.73;-10.750
967.28;-8.6000
967.82;0.8500
968.37;-2.6000
968.91;-1.1500
969.46;-4.2000
970.00;-8.3500
970.55;4.2000
971.09;-1.7500
971.64;-4.0000
972.18;-2.9500
972.73;-10.0000
973.27;-0.3500
973.82;2.6000
974.36;-6.5500
974.90;1.2000
975.45;-7.7500
975.99;-9.4000
976.54;1.2500
977.08;-5.4000
977.62;-1.7500
978.17;-4.6000
978.71;-5.9500
979.26;0.4000
979.80;-1.9500
980.34;4.4000
980.89;6.4500
981.43;-4.8000
981.97;4.4500
982.52;5.2000
983.06;3.4500
983.61;-4.2000
984.15;-3.7500
984.69;0.4000
985.24;1.8500
985.78;-6.0000
986.32;-0.3500
986.87;3.0000
987.41;-3.1500
987.95;1.4000
988.49;-3.5500
989.04;6.2000
989.58;-1.5500
990.12;-8.0000
990.67;-2.3500
991.21;1.8000
991.75;-7.5500
992.29;-1.2000
992.84;-5.3500
993.38;-4.8000
993.92;-3.3500
994.46;4.6000
995.01;-7.7500
995.55;3.2000
996.09;-4.3500
996.63;-4.4000
997.18;-11.950
997.72;9.8000
998.26;-3.3500
998.80;-5.8000
999.34;-10.950
999.89;7.2000
1000.43;-1.1500
1000.97;3.8000
1001.51;-16.950
1002.05;-9.4000
1002.60;-2.9500
1003.14;-5.2000
1003.68;-3.3500
1004.22;-4.6000
1004.76;-4.1500
1005.30;-9.8000
1005.84;-5.5500
1006.39;-9.6000
1006.93;-5.9500
1007.47;-10.400
1008.01;3.0500
1008.55;-1.2000
1009.09;-5.1500
1009.63;-10.0000
1010.17;-15.950
1010.72;-8.4000
1011.26;-2.5500
1011.80;-6.2000
1012.34;-7.9500
1012.88;-8.8000
1013.42;-7.7500
1013.96;-6.0000
1014.50;-13.950
1015.04;-7.4000
1015.58;-31.150
1016.12;-11.200
1016.66;-7.3500
1017.20;-4.2000
1017.74;-0.5500
1018.28;-3.0000
1018.82;-8.5500
1019.36;-4.8000
1019.90;-8.9500
1020.44;-5.2000
1020.98;-3.3500
1021.52;0.6000
1022.06;-3.3500
1022.60;-2.2000
1023.14;-13.550
1023.68;-12.200
1024.22;-5.9500
1024.76;0.4000
1025.30;-6.3500
1025.84;-10.800
1026.38;1.8500
1026.92;-1.4000
1027.46;-6.1500
1028.00;-6.4000
1028.54;-5.3500
1029.08;-4.8000
1029.62;0.6500
1030.16;-2.2000
1030.70;-3.3500
1031.23;-10.800
1031.77;0.4500
1032.31;-13.800
1032.85;-16.350
1033.39;-2.0000
1033.93;-2.5500
1034.47;-11.200
1035.01;-16.150
1035.54;-7.6000
1036.08;-2.3500
1036.62;-3.0000
1037.16;-5.1500
1037.70;-10.0000
1038.24;2.8500
1038.78;3.6000
1039.31;-6.3500
1039.85;-1.0000
1040.39;-9.7500
1040.93;-5.2000
1041.47;-4.9500
1042.00;-2.0000
1042.54;7.8500
1043.08;-2.6000
1043.62;-7.7500
1044.16;-1.4000
1044.69;4.6500
1045.23;-6.0000
1045.77;-10.350
1046.31;-11.000
1046.84;-2.1500
1047.38;6.8000
1047.92;-3.9500
1048.46;-5.4000
1048.99;-15.750
1049.53;-12.200
1050.07;-4.3500
1050.61;-15.600
1051.14;-4.1500
1051.68;-4.0000
1052.22;-16.350
1052.75;-9.4000
1053.29;-0.7500
1053.83;-3.4000
1054.36;2.2500
1054.90;0
1055.44;0.2500
1055.97;3.8000
1056.51;-9.3500
1057.05;-0.4000
1057.58;-1.3500
1058.12;-7.2000
1058.66;-4.7500
1059.19;-5.2000
1059.73;-4.1500
1060.27;6.2000
1060.80;-10.750
1061.34;-11.800
1061.87;-5.5500
1062.41;-4.2000
1062.95;5.8500
1063.48;-15.800
1064.02;-8.5500
1064.55;1.2000
1065.09;-11.350
1065.63;-0.6000
1066.16;-7.1500
1066.70;-8.6000
1067.23;-12.550
1067.77;-9.2000
1068.30;-6.5500
1068.84;2.6000
1069.37;-18.150
1069.91;-15.200
1070.44;3.2500
1070.98;-2.4000
1071.52;-8.5500
1072.05;-14.200
1072.59;-11.550
1073.12;2.2000
1073.66;-16.150
1074.19;-9.8000
1074.73;-14.150
1075.26;-13.400
1075.79;-0.3500
1076.33;-7.4000
1076.86;-5.3500
1077.40;8.4000
1077.93;-23.550
1078.47;-14.200
1079.00;-10.550
1079.54;-6.6000
1080.07;-3.5500
1080.60;-2.0000
1081.14;-9.5500
1081.67;1.0000
1082.21;-8.7500
1082.74;-9.0000
1083.28;-8.5500
1083.81;-4.6000
1084.34;-5.3500
1084.88;-10.800
1085.41;-6.9500
1085.94;0.8000
1086.48;-13.950
1087.01;-16.000
1087.55;-11.950
1088.08;-8.8000
1088.61;1.0500
1089.15;-16.800
1089.68;-8.1500
1090.21;-2.4000
1090.75;-11.150
1091.28;-8.2000
1091.81;-7.1500
1092.35;-11.600
1092.88;-9.1500
1093.41;-13.200
1093.94;-13.750
1094.48;-4.0000
1095.01;-13.150
1095.54;-16.400
1096.08;-13.350
1096.61;0.2000
1097.14;1.4500
1097.67;-4.4000
1098.21;-13.350
1098.74;-10.800
1099.27;-5.9500
1099.80;-4.0000
1100.34;-8.9500
