M- sun, visible
Integration time: 4 ms
Average: 2 scans
Nr of pixels used for smoothing: 0
Data measured with spectrometer serial number: 0608009S1
Wave   ;Sample
[nm]   ;[counts]
277.42;68.625
278.02;66.875
278.61;42.625
279.21;51.875
279.80;26.125
280.40;44.375
280.99;33.125
281.59;58.375
282.18;61.625
282.78;57.375
283.37;53.625
283.97;69.375
284.56;51.625
285.15;61.375
285.75;66.125
286.34;47.375
286.94;80.125
287.53;55.875
288.13;50.125
288.72;71.375
289.31;48.125
289.91;69.875
290.50;49.125
291.10;50.375
291.69;77.125
292.29;55.875
292.88;50.125
293.47;77.375
294.07;52.125
294.66;68.375
295.25;39.625
295.85;54.875
296.44;55.125
297.04;74.875
297.63;59.125
298.22;56.875
298.82;55.625
299.41;53.875
300.00;52.625
300.60;49.875
301.19;58.625
301.79;71.375
302.38;56.125
302.97;73.375
303.57;43.125
304.16;56.375
304.75;53.125
305.35;78.375
305.94;83.625
306.53;73.875
307.13;67.125
307.72;89.375
308.31;71.625
308.90;74.875
309.50;74.625
310.09;83.375
310.68;87.625
311.28;82.375
311.87;94.625
312.46;123.88
313.06;90.125
313.65;96.875
314.24;101.63
314.83;102.38
315.43;106.63
316.02;133.88
316.61;112.13
317.20;144.88
317.80;128.63
318.39;158.38
318.98;138.63
319.57;148.38
320.17;141.13
320.76;161.38
321.35;168.13
321.94;165.88
322.54;129.63
323.13;157.88
323.72;177.13
324.31;207.38
324.90;182.13
325.50;230.88
326.09;204.13
326.68;225.38
327.27;227.63
327.87;219.38
328.46;222.13
329.05;224.38
329.64;243.13
330.23;237.88
330.82;247.63
331.42;238.38
332.01;236.63
332.60;261.38
333.19;268.13
333.78;267.38
334.37;263.63
334.97;302.88
335.56;283.13
336.15;259.88
336.74;280.13
337.33;325.88
337.92;333.63
338.52;335.38
339.11;337.63
339.70;366.88
340.29;370.13
340.88;391.88
341.47;396.13
342.06;428.88
342.65;424.13
343.25;426.88
343.84;451.63
344.43;496.38
345.02;478.13
345.61;520.38
346.20;515.63
346.79;541.88
347.38;568.63
347.97;577.38
348.56;643.63
349.15;656.88
349.74;646.63
350.34;691.38
350.93;738.13
351.52;724.88
352.11;797.63
352.70;805.38
353.29;835.63
353.88;826.38
354.47;842.13
355.06;832.88
355.65;754.13
356.24;781.38
356.83;710.13
357.42;731.88
358.01;732.63
358.60;734.88
359.19;745.63
359.78;748.88
360.37;763.13
360.96;768.88
361.55;784.13
362.14;769.38
362.73;767.13
363.32;818.88
363.91;836.63
364.50;876.38
365.09;895.63
365.68;878.38
366.27;954.13
366.86;952.38
367.45;941.63
368.04;913.88
368.63;921.13
369.22;941.88
369.81;958.63
370.40;950.88
370.99;936.13
371.58;955.38
372.17;917.63
372.76;937.38
373.34;975.63
373.93;980.38
374.52;999.13
375.11;1057.9
375.70;1172.1
376.29;1250.9
376.88;1216.6
377.47;1286.9
378.06;1258.6
378.65;1306.9
379.24;1332.6
379.82;1229.4
380.41;1230.1
381.00;1210.4
381.59;1182.1
382.18;1158.4
382.77;1178.1
383.36;1195.9
383.95;1233.6
384.54;1348.9
385.12;1392.1
385.71;1523.9
386.30;1492.1
386.89;1551.4
387.48;1645.6
388.07;1677.4
388.65;1859.6
389.24;1940.9
389.83;2034.1
390.42;1957.9
391.01;1912.1
391.60;1856.9
392.18;1854.6
392.77;1938.9
393.36;1949.1
393.95;1936.9
394.54;2042.1
395.12;2200.4
395.71;2440.1
396.30;2535.4
396.89;2687.1
397.48;2917.4
398.06;3237.1
398.65;3590.9
399.24;3878.6
399.83;3894.9
400.41;4085.1
401.00;4078.4
401.59;4234.1
402.18;4229.9
402.77;4310.1
403.35;4274.4
403.94;4273.1
404.53;4278.4
405.11;4221.6
405.70;4329.9
406.29;4406.6
406.88;4371.9
407.46;4380.1
408.05;4440.4
408.64;4375.6
409.23;4561.4
409.81;4546.6
410.40;4495.4
410.99;4582.6
411.57;4660.4
412.16;4688.1
412.75;4673.9
413.33;4671.6
413.92;4706.9
414.51;4658.1
415.10;4659.9
415.68;4543.1
416.27;4564.4
416.86;4587.6
417.44;4586.9
418.03;4553.6
418.61;4592.4
419.20;4635.6
419.79;4627.9
420.37;4641.1
420.96;4653.9
421.55;4612.6
422.13;4693.9
422.72;4553.1
423.31;4520.9
423.89;4618.1
424.48;4571.4
425.06;4571.6
425.65;4594.4
426.24;4503.1
426.82;4499.9
427.41;4278.1
427.99;4339.4
428.58;4241.1
429.17;4184.9
429.75;4226.6
430.34;4328.9
430.92;4480.1
431.51;4631.9
432.10;4881.1
432.68;5080.9
433.27;5181.6
433.85;5280.4
434.44;5313.6
435.02;5346.9
435.61;5382.6
436.19;5467.9
436.78;5535.6
437.37;5454.9
437.95;5580.6
438.54;5509.4
439.12;5630.6
439.71;5845.9
440.29;5869.1
440.88;6127.9
441.46;6161.1
442.05;6217.9
442.63;6427.6
443.22;6467.9
443.80;6434.1
444.39;6549.9
444.97;6727.1
445.56;6730.9
446.14;6877.6
446.73;6972.9
447.31;7052.6
447.90;7395.4
448.48;7470.6
449.07;7596.4
449.65;7742.1
450.23;7806.4
450.82;7787.6
451.40;7910.4
451.99;7879.1
452.57;7875.4
453.16;8038.1
453.74;8120.9
454.33;8290.1
454.91;8339.9
455.49;8384.1
456.08;8506.9
456.66;8616.1
457.25;8746.4
457.83;8668.1
458.41;8790.4
459.00;8765.1
459.58;8738.9
460.17;8806.6
460.75;8923.9
461.33;8922.6
461.92;8827.9
462.50;8957.1
463.09;8957.4
463.67;8840.6
464.25;8816.4
464.84;8791.1
465.42;8774.9
466.00;8738.6
466.59;8704.9
467.17;8718.6
467.75;8687.9
468.34;8662.1
468.92;8732.4
469.50;8626.6
470.09;8668.9
470.67;8561.1
471.25;8521.4
471.84;8582.6
472.42;8571.4
473.00;8526.1
473.59;8485.9
474.17;8499.6
474.75;8382.4
475.34;8345.1
475.92;8235.4
476.50;8264.6
477.08;8182.9
477.67;8265.1
478.25;8237.9
478.83;8206.6
479.42;8163.9
480.00;8211.6
480.58;8097.9
481.16;8088.1
481.75;8014.4
482.33;7956.1
482.91;7890.4
483.49;7629.1
484.08;7348.4
484.66;7230.1
485.24;7128.9
485.82;7000.1
486.40;6883.9
486.99;6989.1
487.57;7188.9
488.15;7232.1
488.73;7249.4
489.32;7284.6
489.90;7222.9
490.48;7364.6
491.06;7298.9
491.64;7210.6
492.22;7296.4
492.81;7310.1
493.39;7351.4
493.97;7391.1
494.55;7379.4
495.13;7391.6
495.72;7354.9
496.30;7338.1
496.88;7280.4
497.46;7172.6
498.04;7126.4
498.62;7037.1
499.20;7023.4
499.79;7127.6
500.37;7129.4
500.95;7052.6
501.53;7148.9
502.11;7161.1
502.69;7066.9
503.27;7171.6
503.85;7301.9
504.44;7268.6
505.02;7206.4
505.60;7275.6
506.18;7290.4
506.76;7388.6
507.34;7305.4
507.92;7399.1
508.50;7411.9
509.08;7508.6
509.66;7535.4
510.24;7586.1
510.82;7580.9
511.40;7532.1
511.99;7662.9
512.57;7518.1
513.15;7714.4
513.73;7532.1
514.31;7484.9
514.89;7501.1
515.47;7374.4
516.05;7314.6
516.63;7265.4
517.21;7315.6
517.79;7379.9
518.37;7581.1
518.95;7717.9
519.53;7806.1
520.11;8102.9
520.69;8013.6
521.27;8061.4
521.85;8242.1
522.43;8400.9
523.01;8252.1
523.59;8217.4
524.17;8293.1
524.75;8222.4
525.33;8272.6
525.91;8323.9
526.49;8292.6
527.07;8337.4
527.65;8423.1
528.23;8579.9
528.80;8674.1
529.38;8845.9
529.96;8780.1
530.54;8721.9
531.12;8787.6
531.70;8827.9
532.28;8813.6
532.86;8880.9
533.44;8906.6
534.02;9025.9
534.60;9098.6
535.18;9162.4
535.76;9174.6
536.33;9251.4
536.91;9303.1
537.49;9180.9
538.07;9185.1
538.65;9186.9
539.23;9194.1
539.81;9124.4
540.39;9113.1
540.96;9325.4
541.54;9216.6
542.12;9378.9
542.70;9404.6
543.28;9434.9
543.86;9480.6
544.43;9519.9
545.01;9617.6
545.59;9607.9
546.17;9654.1
546.75;9688.4
547.33;9618.1
547.90;9618.4
548.48;9696.6
549.06;9623.4
549.64;9666.1
550.22;9651.4
550.79;9634.6
551.37;9608.9
551.95;9599.6
552.53;9633.4
553.11;9637.6
553.68;9641.9
554.26;9657.6
554.84;9845.9
555.42;9746.1
555.99;9734.9
556.57;9586.6
557.15;9737.4
557.73;9645.1
558.30;9608.4
558.88;9583.1
559.46;9488.9
560.04;9444.1
560.61;9466.9
561.19;9410.6
561.77;9436.4
562.35;9449.6
562.92;9308.9
563.50;9232.1
564.08;9310.9
564.65;9180.6
565.23;9222.4
565.81;9168.6
566.38;8994.9
566.96;9172.6
567.54;9109.9
568.11;9190.1
568.69;9112.9
569.27;8927.6
569.84;8849.9
570.42;8767.6
571.00;8819.4
571.57;8785.6
572.15;8857.9
572.73;8825.6
573.30;8839.4
573.88;8738.6
574.46;8606.4
575.03;8541.6
575.61;8657.4
576.18;8469.6
576.76;8559.9
577.34;8516.6
577.91;8483.9
578.49;8392.1
579.07;8400.9
579.64;8355.6
580.22;8411.9
580.79;8360.6
581.37;8391.4
581.94;8238.6
582.52;8201.9
583.10;8125.1
583.67;8151.4
584.25;8055.1
584.82;8050.9
585.40;8003.1
585.97;7815.4
586.55;7621.6
587.12;7551.9
587.70;7414.1
588.28;7330.4
588.85;7114.1
589.43;7086.9
590.00;7031.6
590.58;7131.4
591.15;7134.6
591.73;7220.4
592.30;7235.6
592.88;7141.4
593.45;7111.6
594.03;7126.4
594.60;7036.1
595.18;7003.9
595.75;6926.6
596.33;6955.4
596.90;6967.6
597.48;6966.4
598.05;6908.1
598.63;6922.4
599.20;6800.1
599.77;6734.4
600.35;6679.1
600.92;6653.4
601.50;6639.1
602.07;6672.9
602.65;6524.1
603.22;6550.4
603.79;6681.1
604.37;6699.4
604.94;6524.6
605.52;6411.9
606.09;6518.6
606.67;6398.9
607.24;6372.1
607.81;6277.4
608.39;6310.1
608.96;6243.4
609.54;6342.6
610.11;6259.9
610.68;6168.1
611.26;6151.9
611.83;6066.1
612.40;6197.9
612.98;6109.6
613.55;6093.9
614.12;6031.6
614.70;6040.4
615.27;6108.1
615.84;5959.4
616.42;5944.6
616.99;5832.9
617.56;5985.6
618.14;6012.9
618.71;5943.6
619.28;5967.9
619.86;5883.6
620.43;6113.4
621.00;5869.1
621.58;5960.9
622.15;5876.1
622.72;5865.9
623.30;5740.1
623.87;5821.4
624.44;5700.1
625.01;5682.4
625.59;5669.1
626.16;5600.9
626.73;5514.1
627.30;5633.4
627.88;5569.1
628.45;5530.9
629.02;5461.6
629.59;5564.4
630.17;5504.1
630.74;5610.4
631.31;5529.1
631.88;5556.9
632.46;5562.6
633.03;5485.9
633.60;5512.6
634.17;5580.9
634.74;5491.6
635.32;5565.4
635.89;5621.6
636.46;5581.4
637.03;5577.6
637.60;5523.4
638.18;5404.6
638.75;5456.9
639.32;5378.6
639.89;5401.9
640.46;5496.6
641.03;5413.4
641.61;5500.1
642.18;5448.4
642.75;5356.1
643.32;5336.9
643.89;5345.6
644.46;5320.4
645.03;5254.1
645.60;5192.4
646.18;5133.6
646.75;5051.4
647.32;4974.1
647.89;4987.9
648.46;4990.1
649.03;5087.4
649.60;5010.6
650.17;4977.4
650.74;4992.1
651.31;5064.4
651.89;5052.6
652.46;5088.4
653.03;4964.1
653.60;4945.4
654.17;4828.1
654.74;4850.9
655.31;4693.6
655.88;4674.9
656.45;4687.1
657.02;4832.9
657.59;4905.1
658.16;5127.9
658.73;5148.1
659.30;5202.4
659.87;5294.6
660.44;5188.9
661.01;5177.6
661.58;5147.9
662.15;5077.1
662.72;5061.9
663.29;4868.1
663.86;4900.4
664.43;4969.6
665.00;4996.9
665.57;4847.6
666.14;4856.4
666.71;4854.1
667.28;4860.9
667.85;4741.6
668.42;4784.9
668.99;4831.1
669.56;4771.9
670.13;4805.1
670.70;4664.9
671.27;4693.1
671.84;4716.9
672.41;4664.1
672.98;4733.9
673.54;4768.6
674.11;4739.9
674.68;4698.1
675.25;4735.4
675.82;4651.1
676.39;4728.9
676.96;4718.6
677.53;4771.4
678.10;4844.1
678.67;4779.4
679.23;4863.1
679.80;4822.4
680.37;4811.6
680.94;4777.9
681.51;4838.1
682.08;4879.9
682.65;4730.1
683.21;4699.9
683.78;4732.6
684.35;4610.4
684.92;4378.1
685.49;4294.9
686.06;4281.1
686.62;4196.4
687.19;4153.1
687.76;3981.9
688.33;3997.6
688.90;4016.4
689.46;4025.6
690.03;3983.4
690.60;3983.6
691.17;3998.4
691.74;4063.6
692.30;4052.4
692.87;3978.6
693.44;4102.9
694.01;4055.6
694.57;4104.9
695.14;4099.6
695.71;4190.9
696.28;4212.6
696.84;4384.9
697.41;4286.1
697.98;4289.4
698.55;4273.1
699.11;4222.9
699.68;4210.6
700.25;4216.4
700.82;4201.6
701.38;4145.4
701.95;4117.1
702.52;4071.4
703.08;4048.1
703.65;4062.4
704.22;4084.6
704.78;3988.9
705.35;4065.1
705.92;4003.4
706.48;4013.6
707.05;3897.9
707.62;3794.6
708.18;3776.9
708.75;3838.1
709.32;3690.9
709.88;3693.1
710.45;3563.9
711.02;3533.1
711.58;3576.4
712.15;3547.6
712.72;3501.9
713.28;3432.1
713.85;3417.4
714.41;3298.1
714.98;3126.4
715.55;2974.1
716.11;2852.4
716.68;2734.1
717.24;2642.4
717.81;2540.1
718.38;2560.9
718.94;2561.6
719.51;2568.4
720.07;2697.6
720.64;2637.9
721.20;2652.1
721.77;2673.4
722.33;2675.6
722.90;2680.4
723.47;2622.1
724.03;2466.4
724.60;2423.6
725.16;2483.9
725.73;2428.6
726.29;2421.9
726.86;2461.6
727.42;2389.4
727.99;2388.1
728.55;2356.4
729.12;2428.1
729.68;2388.9
730.25;2488.6
730.81;2470.4
731.38;2486.6
731.94;2518.4
732.51;2532.1
733.07;2527.9
733.64;2537.1
734.20;2550.9
734.76;2543.6
735.33;2502.9
735.89;2522.6
736.46;2462.4
737.02;2508.1
737.59;2445.4
738.15;2450.6
738.72;2390.9
739.28;2396.6
739.84;2383.9
740.41;2378.6
740.97;2337.4
741.54;2341.1
742.10;2289.9
742.66;2313.6
743.23;2281.9
743.79;2359.1
744.35;2335.4
744.92;2228.1
745.48;2232.4
746.05;2238.6
746.61;2195.4
747.17;2198.1
747.74;2197.4
748.30;2051.1
748.86;2127.4
749.43;2049.6
749.99;2034.9
750.55;1983.6
751.12;2034.4
751.68;1978.6
752.24;1952.4
752.81;1920.6
753.37;1934.4
753.93;1923.1
754.50;1884.9
755.06;1839.6
755.62;1896.9
756.18;1843.1
756.75;1737.9
757.31;1541.1
757.87;1408.4
758.44;1219.1
759.00;1133.4
759.56;978.13
760.12;872.38
760.69;769.13
761.25;790.38
761.81;823.13
762.37;869.38
762.94;943.63
763.50;956.88
764.06;976.63
764.62;1102.4
765.18;1192.6
765.75;1293.4
766.31;1274.6
766.87;1325.9
767.43;1340.1
767.99;1392.4
768.56;1387.6
769.12;1391.9
769.68;1405.1
770.24;1414.4
770.80;1399.6
771.36;1400.4
771.93;1420.6
772.49;1374.9
773.05;1414.1
773.61;1403.9
774.17;1379.1
774.73;1356.9
775.29;1390.6
775.86;1305.9
776.42;1320.6
776.98;1350.9
777.54;1302.6
778.10;1318.4
778.66;1290.1
779.22;1300.4
779.78;1286.1
780.34;1289.4
780.91;1282.6
781.47;1250.9
782.03;1266.1
782.59;1332.4
783.15;1235.6
783.71;1199.4
784.27;1182.6
784.83;1234.4
785.39;1201.1
785.95;1214.4
786.51;1182.6
787.07;1211.4
787.63;1187.1
788.19;1190.4
788.75;1151.1
789.31;1154.4
789.87;1093.1
790.43;1099.9
790.99;1063.6
791.55;1083.9
792.11;1086.6
792.67;1100.4
793.23;1068.1
793.79;1102.4
794.35;1017.6
794.91;1107.9
795.47;1086.6
796.03;1103.9
796.59;1108.1
797.15;1043.9
797.71;1071.1
798.27;1071.9
798.83;1044.1
799.39;1056.9
799.95;1025.1
800.51;1035.4
801.07;1044.6
801.63;1004.9
802.19;1036.1
802.75;1015.4
803.30;1011.1
803.86;997.38
804.42;1007.1
804.98;1033.4
805.54;1000.1
806.10;957.88
806.66;943.13
807.22;979.38
807.78;977.63
808.33;952.88
808.89;919.63
809.45;893.38
810.01;879.13
810.57;852.88
811.13;837.63
811.69;838.88
812.24;777.63
812.80;803.88
813.36;773.13
813.92;717.38
814.48;703.63
815.03;690.38
815.59;676.13
816.15;678.38
816.71;707.13
817.27;670.38
817.82;695.63
818.38;702.88
818.94;668.63
819.50;725.88
820.06;697.13
820.61;650.38
821.17;675.63
821.73;680.38
822.29;682.13
822.84;678.38
823.40;686.63
823.96;701.88
824.52;687.63
825.07;732.88
825.63;707.13
826.19;661.38
826.74;707.63
827.30;647.88
827.86;682.63
828.42;658.88
828.97;648.63
829.53;699.88
830.09;683.63
830.64;681.38
831.20;686.63
831.76;701.88
832.31;689.13
832.87;680.38
833.43;687.13
833.98;697.88
834.54;658.63
835.10;698.38
835.65;691.63
836.21;681.88
836.77;715.13
837.32;704.38
837.88;718.63
838.43;755.38
838.99;706.63
839.55;718.38
840.10;693.13
840.66;722.38
841.21;690.63
841.77;693.38
842.33;713.63
842.88;703.88
843.44;707.13
843.99;698.88
844.55;712.13
845.11;695.88
845.66;665.13
846.22;688.88
846.77;661.13
847.33;687.88
847.88;669.13
848.44;689.88
848.99;664.63
849.55;656.88
850.10;625.63
850.66;648.88
851.21;625.13
851.77;636.38
852.32;656.63
852.88;615.88
853.43;631.13
853.99;627.38
854.54;659.63
855.10;620.88
855.65;656.63
856.21;659.38
856.76;664.63
857.32;659.38
857.87;654.63
858.43;668.38
858.98;624.13
859.54;662.88
860.09;665.63
860.64;661.38
861.20;685.63
861.75;619.88
862.31;668.63
862.86;647.38
863.41;580.13
863.97;624.38
864.52;599.13
865.08;609.88
865.63;574.63
866.18;624.88
866.74;592.63
867.29;580.88
867.85;572.13
868.40;605.88
868.95;593.13
869.51;629.38
870.06;624.13
870.61;620.88
871.17;610.63
871.72;644.38
872.27;606.63
872.83;609.38
873.38;600.13
873.93;608.38
874.49;577.63
875.04;599.38
875.59;578.13
876.15;575.88
876.70;599.13
877.25;579.38
877.80;614.13
878.36;555.88
878.91;585.13
879.46;597.38
880.02;596.13
880.57;580.38
881.12;594.63
881.67;562.88
882.23;580.13
882.78;535.88
883.33;585.13
883.88;590.88
884.44;551.63
884.99;556.88
885.54;564.13
886.09;575.38
886.64;587.63
887.20;580.88
887.75;565.13
888.30;574.38
888.85;574.13
889.40;548.38
889.96;540.63
890.51;563.38
891.06;577.13
891.61;536.38
892.16;492.63
892.71;511.88
893.27;484.63
893.82;480.38
894.37;433.13
894.92;440.88
895.47;445.63
896.02;415.38
896.57;403.63
897.13;391.38
897.68;421.63
898.23;410.38
898.78;388.63
899.33;411.88
899.88;381.13
900.43;398.38
900.98;422.13
901.53;412.38
902.08;411.13
902.63;465.38
903.19;410.13
903.74;423.88
904.29;416.63
904.84;428.88
905.39;399.63
905.94;422.38
906.49;351.63
907.04;361.38
907.59;368.13
908.14;377.38
908.69;387.63
909.24;347.38
909.79;396.13
910.34;367.88
910.89;365.63
911.44;355.38
911.99;352.13
912.54;330.88
913.09;328.63
913.64;365.88
914.19;302.13
914.74;349.38
915.29;352.13
915.84;336.88
916.39;353.63
916.94;361.38
917.49;370.13
918.04;359.88
918.58;367.63
919.13;387.88
919.68;346.13
920.23;392.88
920.78;381.13
921.33;376.38
921.88;370.13
922.43;374.38
922.98;356.13
923.53;383.88
924.08;364.13
924.62;364.88
925.17;354.13
925.72;327.88
926.27;335.63
926.82;315.88
927.37;251.13
927.92;257.88
928.46;231.13
929.01;220.38
929.56;180.63
930.11;177.38
930.66;140.63
931.21;150.38
931.75;112.63
932.30;128.88
932.85;110.63
933.40;113.38
933.95;100.13
934.49;91.875
935.04;123.63
935.59;115.88
936.14;124.63
936.69;142.38
937.23;138.13
937.78;129.38
938.33;131.63
938.88;170.38
939.42;157.63
939.97;169.38
940.52;151.13
941.07;142.38
941.61;140.13
942.16;127.38
942.71;120.63
943.25;125.38
943.80;135.13
944.35;128.88
944.90;110.63
945.44;127.38
945.99;126.13
946.54;120.38
947.08;121.63
947.63;131.38
948.18;123.13
948.72;136.38
949.27;116.13
949.82;139.38
950.36;104.13
950.91;128.38
951.46;129.13
952.00;121.88
952.55;133.63
953.09;124.88
953.64;131.63
954.19;130.88
954.73;116.63
955.28;121.88
955.82;134.63
956.37;139.38
956.92;130.63
957.46;141.38
958.01;103.63
958.55;135.38
959.10;124.63
959.65;121.88
960.19;167.63
960.74;151.38
961.28;152.63
961.83;132.88
962.37;145.13
962.92;147.88
963.46;156.63
964.01;148.38
964.55;152.13
965.10;162.88
965.64;155.63
966.19;188.88
966.73;159.63
967.28;170.88
967.82;187.13
968.37;184.88
968.91;173.63
969.46;163.38
970.00;197.13
970.55;170.38
971.09;179.63
971.64;175.38
972.18;155.13
972.73;168.38
973.27;166.63
973.82;164.38
974.36;132.63
974.90;171.88
975.45;161.13
975.99;178.88
976.54;162.63
977.08;129.88
977.62;159.13
978.17;153.38
978.71;152.13
979.26;160.38
979.80;146.63
980.34;161.38
980.89;168.63
981.43;182.38
981.97;174.13
982.52;171.38
983.06;157.13
983.61;176.38
984.15;171.13
984.69;162.38
985.24;172.63
985.78;178.38
986.32;186.63
986.87;148.88
987.41;142.63
987.95;178.88
988.49;172.63
989.04;151.38
989.58;170.13
990.12;143.38
990.67;158.63
991.21;171.88
991.75;147.13
992.29;156.88
992.84;148.63
993.38;148.88
993.92;139.63
994.46;162.88
995.01;153.63
995.55;140.38
996.09;130.13
996.63;174.38
997.18;143.13
997.72;128.88
998.26;134.13
998.80;146.38
999.34;143.63
999.89;118.88
1000.43;130.63
1000.97;126.88
1001.51;133.13
1002.05;136.88
1002.60;105.13
1003.14;143.38
1003.68;118.63
1004.22;119.88
1004.76;106.63
1005.30;111.88
1005.84;102.63
1006.39;114.88
1006.93;114.13
1007.47;121.88
1008.01;103.13
1008.55;123.88
1009.09;98.625
1009.63;103.88
1010.17;125.63
1010.72;101.88
1011.26;93.625
1011.80;110.88
1012.34;98.125
1012.88;107.88
1013.42;83.125
1013.96;88.375
1014.50;99.125
1015.04;104.38
1015.58;95.125
1016.12;93.375
1016.66;85.625
1017.20;93.375
1017.74;85.125
1018.28;79.375
1018.82;101.63
1019.36;82.875
1019.90;72.625
1020.44;101.88
1020.98;79.625
1021.52;76.875
1022.06;82.625
1022.60;86.875
1023.14;77.125
1023.68;87.875
1024.22;67.125
1024.76;66.375
1025.30;71.125
1025.84;61.875
1026.38;75.625
1026.92;48.375
1027.46;58.625
1028.00;69.875
1028.54;52.625
1029.08;65.375
1029.62;66.625
1030.16;73.375
1030.70;58.125
1031.23;70.375
1031.77;58.625
1032.31;71.375
1032.85;58.625
1033.39;68.875
1033.93;63.625
1034.47;63.375
1035.01;64.625
1035.54;53.875
1036.08;40.625
1036.62;56.375
1037.16;51.125
1037.70;56.875
1038.24;33.625
1038.78;42.875
1039.31;39.125
1039.85;35.875
1040.39;27.125
1040.93;45.875
1041.47;32.125
1042.00;41.875
1042.54;51.125
1043.08;33.375
1043.62;27.625
1044.16;26.375
1044.69;30.125
1045.23;44.375
1045.77;42.125
1046.31;50.875
1046.84;37.625
1047.38;28.875
1047.92;27.625
1048.46;40.375
1048.99;9.1250
1049.53;44.375
1050.07;39.125
1050.61;34.375
1051.14;32.125
1051.68;29.375
1052.22;28.125
1052.75;40.375
1053.29;34.125
1053.83;31.375
1054.36;42.125
1054.90;42.375
1055.44;12.125
1055.97;19.875
1056.51;38.625
1057.05;17.875
1057.58;-9.8750
1058.12;37.375
1058.66;9.6250
1059.19;30.875
1059.73;26.625
1060.27;0.3750
1060.80;29.125
1061.34;25.875
1061.87;15.625
1062.41;24.375
1062.95;22.125
1063.48;29.375
1064.02;7.1250
1064.55;22.375
1065.09;9.1250
1065.63;12.375
1066.16;0.6250
1066.70;17.375
1067.23;7.1250
1067.77;26.375
1068.30;9.1250
1068.84;14.875
1069.37;27.625
1069.91;10.875
1070.44;5.6250
1070.98;25.375
1071.52;24.625
1072.05;27.375
1072.59;26.125
1073.12;16.375
1073.66;29.625
1074.19;31.875
1074.73;-1.8750
1075.26;30.875
1075.79;11.625
1076.33;14.875
1076.86;12.625
1077.40;14.875
1077.93;-4.3750
1078.47;9.3750
1079.00;8.6250
1079.54;13.875
1080.07;28.125
1080.60;6.3750
1081.14;10.125
1081.67;20.875
1082.21;-5.3750
1082.74;25.375
1083.28;3.6250
1083.81;16.875
1084.34;12.625
1084.88;21.375
1085.41;11.125
1085.94;14.875
1086.48;13.125
1087.01;23.875
1087.55;11.125
1088.08;19.375
1088.61;23.125
1089.15;12.375
1089.68;16.625
1090.21;2.3750
1090.75;22.125
1091.28;28.875
1091.81;8.1250
1092.35;13.375
1092.88;13.125
1093.41;22.375
1093.94;-4.8750
1094.48;16.875
1095.01;-9.3750
1095.54;21.375
1096.08;4.1250
1096.61;17.875
1097.14;15.125
1097.67;1.3750
1098.21;2.1250
1098.74;9.8750
1099.27;5.1250
1099.80;17.875
1100.34;13.125
