M- normal source on, visible
Integration time: 8 ms
Average: 2 scans
Nr of pixels used for smoothing: 0
Data measured with spectrometer serial number: 0608009S1
Wave   ;Sample
[nm]   ;[counts]
277.42;18.375
278.02;24.625
278.61;15.375
279.21;37.625
279.80;16.875
280.40;16.125
280.99;10.875
281.59;6.6250
282.18;20.375
282.78;1.1250
283.37;18.875
283.97;12.625
284.56;23.375
285.15;16.625
285.75;19.875
286.34;22.125
286.94;21.375
287.53;25.625
288.13;37.875
288.72;11.125
289.31;4.8750
289.91;20.625
290.50;5.8750
291.10;6.6250
291.69;17.875
292.29;19.125
292.88;18.875
293.47;17.625
294.07;15.875
294.66;37.125
295.25;12.375
295.85;23.125
296.44;1.8750
297.04;18.625
297.63;18.375
298.22;26.625
298.82;18.875
299.41;17.625
300.00;41.375
300.60;8.1250
301.19;14.375
301.79;-4.8750
302.38;0.3750
302.97;24.125
303.57;13.375
304.16;25.125
304.75;26.375
305.35;17.125
305.94;3.8750
306.53;21.125
307.13;27.375
307.72;23.125
308.31;6.3750
308.90;11.125
309.50;16.375
310.09;12.625
310.68;18.375
311.28;10.625
311.87;8.8750
312.46;19.625
313.06;27.875
313.65;23.125
314.24;19.875
314.83;17.625
315.43;8.3750
316.02;22.125
316.61;17.875
317.20;39.625
317.80;31.375
318.39;34.625
318.98;17.375
319.57;13.125
320.17;25.875
320.76;46.625
321.35;26.875
321.94;37.625
322.54;15.875
323.13;51.625
323.72;36.875
324.31;30.625
324.90;0.3750
325.50;32.625
326.09;31.375
326.68;33.625
327.27;29.375
327.87;28.625
328.46;27.375
329.05;39.625
329.64;74.375
330.23;85.625
330.82;88.875
331.42;91.125
332.01;104.38
332.60;122.13
333.19;129.88
333.78;87.625
334.37;82.375
334.97;90.625
335.56;109.88
336.15;104.13
336.74;87.375
337.33;101.13
337.92;94.875
338.52;66.125
339.11;104.38
339.70;81.125
340.29;66.375
340.88;60.125
341.47;86.375
342.06;72.125
342.65;97.875
343.25;98.125
343.84;101.38
344.43;166.63
345.02;152.38
345.61;198.63
346.20;189.38
346.79;154.13
347.38;154.88
347.97;127.63
348.56;108.38
349.15;202.13
349.74;235.88
350.34;242.13
350.93;268.38
351.52;251.13
352.11;227.88
352.70;220.13
353.29;123.88
353.88;75.625
354.47;83.875
355.06;128.63
355.65;118.38
356.24;144.13
356.83;187.88
357.42;176.63
358.01;169.88
358.60;151.13
359.19;126.38
359.78;129.13
360.37;125.88
360.96;56.625
361.55;55.875
362.14;59.125
362.73;59.375
363.32;55.125
363.91;55.375
364.50;61.125
365.09;50.875
365.68;47.125
366.27;59.375
366.86;70.625
367.45;63.375
368.04;76.625
368.63;89.375
369.22;88.125
369.81;88.875
370.40;96.625
370.99;94.875
371.58;91.625
372.17;69.375
372.76;60.125
373.34;47.375
373.93;47.125
374.52;27.375
375.11;38.125
375.70;23.875
376.29;67.625
376.88;22.375
377.47;49.125
378.06;23.375
378.65;30.625
379.24;29.875
379.82;44.125
380.41;15.375
381.00;30.125
381.59;27.375
382.18;27.625
382.77;18.375
383.36;15.125
383.95;13.875
384.54;14.625
385.12;12.875
385.71;28.625
386.30;7.8750
386.89;33.625
387.48;22.875
388.07;17.125
388.65;14.875
389.24;22.625
389.83;24.875
390.42;30.625
391.01;13.875
391.60;22.125
392.18;18.375
392.77;16.125
393.36;3.8750
393.95;18.625
394.54;23.875
395.12;28.625
395.71;17.375
396.30;26.125
396.89;9.8750
397.48;3.1250
398.06;10.375
398.65;19.625
399.24;20.875
399.83;18.125
400.41;26.875
401.00;34.625
401.59;12.875
402.18;10.625
402.77;18.375
403.35;32.625
403.94;6.8750
404.53;17.625
405.11;13.375
405.70;16.625
406.29;5.3750
406.88;22.125
407.46;5.3750
408.05;3.6250
408.64;14.875
409.23;27.125
409.81;22.875
410.40;27.625
410.99;19.375
411.57;23.125
412.16;8.3750
412.75;24.125
413.33;11.375
413.92;14.125
414.51;19.375
415.10;29.125
415.68;31.875
416.27;9.6250
416.86;11.375
417.44;17.625
418.03;30.875
418.61;21.125
419.20;28.875
419.79;24.125
420.37;26.875
420.96;20.125
421.55;35.875
422.13;40.625
422.72;33.375
423.31;46.125
423.89;29.875
424.48;28.125
425.06;17.875
425.65;25.125
426.24;22.375
426.82;34.625
427.41;16.875
427.99;28.625
428.58;43.375
429.17;24.125
429.75;8.3750
430.34;35.625
430.92;21.375
431.51;10.125
432.10;27.875
432.68;35.625
433.27;13.875
433.85;15.625
434.44;19.375
435.02;22.625
435.61;11.375
436.19;50.125
436.78;52.875
437.37;51.625
437.95;62.375
438.54;62.625
439.12;58.875
439.71;51.625
440.29;56.875
440.88;80.625
441.46;68.375
442.05;57.625
442.63;48.875
443.22;48.625
443.80;34.875
444.39;42.625
444.97;27.875
445.56;34.125
446.14;27.375
446.73;37.625
447.31;42.375
447.90;25.125
448.48;22.875
449.07;24.625
449.65;27.375
450.23;28.125
450.82;47.375
451.40;45.625
451.99;45.375
452.57;34.125
453.16;22.375
453.74;50.625
454.33;28.875
454.91;39.625
455.49;41.375
456.08;44.125
456.66;34.875
457.25;43.125
457.83;26.375
458.41;30.625
459.00;16.375
459.58;22.125
460.17;46.375
460.75;33.125
461.33;48.375
461.92;19.125
462.50;26.375
463.09;39.625
463.67;42.875
464.25;41.625
464.84;22.875
465.42;29.125
466.00;-0.6250
466.59;33.125
467.17;24.875
467.75;41.625
468.34;48.375
468.92;41.625
469.50;60.875
470.09;69.625
470.67;57.875
471.25;46.125
471.84;32.875
472.42;42.625
473.00;35.875
473.59;24.625
474.17;21.875
474.75;14.625
475.34;14.875
475.92;33.125
476.50;10.875
477.08;23.625
477.67;15.375
478.25;35.625
478.83;47.875
479.42;30.125
480.00;31.875
480.58;29.125
481.16;19.375
481.75;34.625
482.33;30.875
482.91;34.125
483.49;32.375
484.08;47.125
484.66;35.875
485.24;35.625
485.82;29.375
486.40;42.625
486.99;38.875
487.57;38.625
488.15;51.375
488.73;18.625
489.32;26.375
489.90;9.6250
490.48;12.375
491.06;40.125
491.64;30.375
492.22;26.625
492.81;14.375
493.39;50.125
493.97;27.375
494.55;44.125
495.13;22.875
495.72;30.125
496.30;14.375
496.88;32.625
497.46;32.875
498.04;19.125
498.62;34.375
499.20;25.125
499.79;12.875
500.37;48.625
500.95;67.375
501.53;81.625
502.11;73.375
502.69;74.625
503.27;52.375
503.85;80.125
504.44;51.875
505.02;59.625
505.60;48.875
506.18;59.625
506.76;59.875
507.34;73.125
507.92;62.375
508.50;77.625
509.08;101.88
509.66;78.125
510.24;105.88
510.82;91.625
511.40;77.875
511.99;103.13
512.57;89.375
513.15;82.625
513.73;49.875
514.31;59.625
514.89;65.375
515.47;51.125
516.05;54.375
516.63;54.625
517.21;51.875
517.79;75.625
518.37;108.88
518.95;87.625
519.53;98.875
520.11;95.125
520.69;69.875
521.27;64.625
521.85;44.375
522.43;46.125
523.01;59.875
523.59;45.125
524.17;39.875
524.75;48.125
525.33;42.875
525.91;39.125
526.49;44.375
527.07;47.125
527.65;50.875
528.23;68.625
528.80;64.875
529.38;72.125
529.96;104.88
530.54;170.13
531.12;224.88
531.70;335.63
532.28;352.88
532.86;353.63
533.44;348.88
534.02;344.13
534.60;231.88
535.18;220.13
535.76;109.38
536.33;93.625
536.91;196.88
537.49;447.63
538.07;502.38
538.65;518.63
539.23;541.88
539.81;541.13
540.39;489.88
540.96;484.13
541.54;185.88
542.12;102.13
542.70;77.875
543.28;70.125
543.86;44.875
544.43;69.625
545.01;37.375
545.59;59.125
546.17;56.375
546.75;51.625
547.33;53.875
547.90;65.125
548.48;53.875
549.06;58.125
549.64;47.875
550.22;57.625
550.79;63.375
551.37;69.625
551.95;64.375
552.53;66.625
553.11;57.875
553.68;95.625
554.26;94.375
554.84;108.63
555.42;101.88
555.99;102.13
556.57;96.375
557.15;108.63
557.73;98.375
558.30;73.125
558.88;73.875
559.46;86.125
560.04;76.875
560.61;86.125
561.19;100.88
561.77;115.13
562.35;85.875
562.92;144.63
563.50;189.88
564.08;205.13
564.65;217.38
565.23;208.63
565.81;210.38
566.38;242.13
566.96;204.38
567.54;177.63
568.11;186.88
568.69;196.63
569.27;222.38
569.84;276.13
570.42;255.88
571.00;235.13
571.57;252.88
572.15;363.63
572.73;377.88
573.30;527.13
573.88;773.38
574.46;876.13
575.03;946.38
575.61;976.13
576.18;950.88
576.76;897.13
577.34;897.38
577.91;689.13
578.49;629.88
579.07;794.13
579.64;966.38
580.22;1099.1
580.79;1235.9
581.37;1602.1
581.94;3841.4
582.52;11163
583.10;11967
583.67;12197
584.25;12449
584.82;12428
585.40;12602
585.97;12406
586.55;10599
587.12;8675.1
587.70;8576.4
588.28;8553.1
588.85;8493.9
589.43;8413.6
590.00;8198.4
590.58;1413.1
591.15;1462.4
591.73;3814.6
592.30;4724.4
592.88;4987.1
593.45;5099.4
594.03;5178.6
594.60;5567.9
595.18;5702.1
595.75;4099.4
596.33;2048.1
596.90;1966.4
597.48;1882.6
598.05;1752.4
598.63;1459.1
599.20;783.88
599.77;754.63
600.35;1459.4
600.92;1571.1
601.50;1621.4
602.07;1637.6
602.65;1588.4
603.22;1634.6
603.79;1647.9
604.37;2145.1
604.94;3891.4
605.52;4328.1
606.09;4720.4
606.67;6937.6
607.24;9044.4
607.81;9404.6
608.39;9201.9
608.96;7076.1
609.54;6418.9
610.11;6213.6
610.68;5447.9
611.26;3702.1
611.83;7119.9
612.40;7792.6
612.98;8238.4
613.55;9507.1
614.12;9599.9
614.70;9550.1
615.27;9219.9
615.84;4783.6
616.42;3411.9
616.99;3208.1
617.56;2363.9
618.14;1003.6
618.71;1341.4
619.28;2081.1
619.86;2190.4
620.43;2296.6
621.00;2246.4
621.58;2193.6
622.15;2182.4
622.72;2052.6
623.30;1136.4
623.87;3413.6
624.44;4738.4
625.01;5044.6
625.59;5167.4
626.16;5268.1
626.73;5176.9
627.30;5200.1
627.88;4882.9
628.45;2635.6
629.02;2521.4
629.59;2693.1
630.17;3145.4
630.74;6081.1
631.31;6956.9
631.88;6407.6
632.46;5931.9
633.03;5840.1
633.60;5745.9
634.17;5349.1
634.74;3476.9
635.32;3019.1
635.89;5680.4
636.46;6436.1
637.03;7757.9
637.60;10341
638.18;10616
638.75;10676
639.32;10611
639.89;9962.6
640.46;9716.4
641.03;9046.1
641.61;4248.4
642.18;1153.6
642.75;814.38
643.32;710.63
643.89;679.38
644.46;661.63
645.03;604.88
645.60;633.63
646.18;590.38
646.75;684.13
647.32;1193.9
647.89;5049.6
648.46;6946.9
649.03;7367.6
649.60;7726.9
650.17;8057.6
650.74;9102.4
651.31;9274.1
651.89;7359.4
652.46;3426.6
653.03;3067.4
653.60;3084.6
654.17;3003.4
654.74;1683.6
655.31;944.38
655.88;850.13
656.45;956.38
657.02;2581.1
657.59;4127.9
658.16;4463.1
658.73;4567.4
659.30;4642.6
659.87;4515.9
660.44;4266.1
661.01;3602.4
661.58;869.63
662.15;495.88
662.72;509.13
663.29;513.38
663.86;585.13
664.43;897.88
665.00;4883.1
665.57;7559.4
666.14;8049.1
666.71;8311.9
667.28;8437.6
667.85;8257.4
668.42;8204.1
668.99;8674.9
669.56;5392.1
670.13;5031.9
670.70;5127.1
671.27;5051.9
671.84;4879.1
672.41;4635.4
672.98;3202.1
673.54;1452.9
674.11;1123.6
674.68;1042.4
675.25;887.63
675.82;892.88
676.39;898.13
676.96;754.38
677.53;665.13
678.10;596.38
678.67;562.63
679.23;509.88
679.80;460.13
680.37;419.88
680.94;415.63
681.51;349.38
682.08;342.13
682.65;293.88
683.21;285.13
683.78;282.88
684.35;260.13
684.92;247.38
685.49;257.13
686.06;232.38
686.62;224.63
687.19;209.88
687.76;217.63
688.33;248.38
688.90;301.13
689.46;475.38
690.03;1720.6
690.60;4480.9
691.17;5152.1
691.74;5818.9
692.30;6103.6
692.87;6133.4
693.44;6133.6
694.01;5933.9
694.57;3042.1
695.14;1697.9
695.71;1282.6
696.28;1040.9
696.84;1069.6
697.41;964.88
697.98;881.63
698.55;739.38
699.11;793.13
699.68;1043.9
700.25;2866.6
700.82;7474.4
701.38;8479.1
701.95;8819.9
702.52;8993.6
703.08;9019.9
703.65;8886.1
704.22;8245.4
704.78;3236.6
705.35;1287.4
705.92;1014.6
706.48;891.88
707.05;741.13
707.62;516.38
708.18;446.13
708.75;399.38
709.32;369.63
709.88;336.88
710.45;281.13
711.02;260.38
711.58;225.13
712.15;208.88
712.72;228.13
713.28;238.38
713.85;211.63
714.41;539.88
714.98;963.13
715.55;1048.4
716.11;1101.6
716.68;1094.9
717.24;1032.6
717.81;1035.4
718.38;935.13
718.94;322.88
719.51;179.13
720.07;208.38
720.64;227.13
721.20;409.88
721.77;2355.6
722.33;3285.9
722.90;3437.6
723.47;3600.4
724.03;3559.1
724.60;3435.4
725.16;3307.6
725.73;2412.4
726.29;383.63
726.86;183.38
727.42;169.63
727.99;184.88
728.55;136.63
729.12;114.88
729.68;133.63
730.25;110.38
730.81;114.63
731.38;104.88
731.94;74.125
732.51;90.375
733.07;83.125
733.64;66.375
734.20;84.125
734.76;90.375
735.33;80.625
735.89;73.375
736.46;71.625
737.02;77.375
737.59;71.625
738.15;52.375
738.72;75.625
739.28;71.375
739.84;90.625
740.41;93.875
740.97;373.63
741.54;698.88
742.10;793.63
742.66;764.88
743.23;799.13
743.79;802.88
744.35;779.13
744.92;719.88
745.48;260.13
746.05;391.38
746.61;522.63
747.17;529.88
747.74;599.63
748.30;597.38
748.86;519.13
749.43;507.38
749.99;451.13
750.55;227.38
751.12;430.63
751.68;553.38
752.24;605.13
752.81;623.88
753.37;587.63
753.93;640.88
754.50;573.63
755.06;292.38
755.62;140.63
756.18;65.875
756.75;49.125
757.31;48.375
757.87;55.125
758.44;53.875
759.00;56.125
759.56;26.375
760.12;33.125
760.69;12.375
761.25;35.125
761.81;27.375
762.37;33.625
762.94;36.375
763.50;32.125
764.06;20.375
764.62;29.125
765.18;22.875
765.75;18.125
766.31;22.875
766.87;32.625
767.43;11.875
767.99;28.625
768.56;26.875
769.12;11.625
769.68;22.375
770.24;8.6250
770.80;6.8750
771.36;31.625
771.93;15.875
772.49;9.1250
773.05;-5.6250
773.61;30.625
774.17;18.875
774.73;14.625
775.29;16.375
775.86;13.625
776.42;17.375
776.98;23.125
777.54;16.375
778.10;33.125
778.66;14.375
779.22;14.125
779.78;11.875
780.34;18.625
780.91;25.375
781.47;24.125
782.03;1.3750
782.59;14.625
783.15;18.375
783.71;14.125
784.27;34.875
784.83;16.125
785.39;3.8750
785.95;16.625
786.51;-3.6250
787.07;3.6250
787.63;24.375
788.19;8.1250
788.75;7.8750
789.31;27.125
789.87;11.375
790.43;48.625
790.99;28.375
791.55;71.625
792.11;76.375
792.67;68.625
793.23;73.375
793.79;82.125
794.35;52.875
794.91;68.125
795.47;46.875
796.03;9.1250
796.59;21.375
797.15;19.125
797.71;11.375
798.27;28.625
798.83;31.375
799.39;25.625
799.95;-0.6250
800.51;13.125
801.07;22.875
801.63;24.625
802.19;12.875
802.75;11.125
803.30;0.8750
803.86;11.125
804.42;-1.1250
804.98;14.125
805.54;35.875
806.10;23.625
806.66;29.375
807.22;34.625
807.78;26.375
808.33;25.125
808.89;34.875
809.45;43.125
810.01;52.875
810.57;66.125
811.13;114.88
811.69;126.63
812.24;113.38
812.80;139.13
813.36;110.38
813.92;109.13
814.48;94.875
815.03;47.125
815.59;17.875
816.15;17.125
816.71;18.875
817.27;29.625
817.82;11.875
818.38;25.125
818.94;10.375
819.50;20.625
820.06;19.375
820.61;21.125
821.17;0.8750
821.73;3.6250
822.29;25.875
822.84;20.125
823.40;29.875
823.96;69.125
824.52;64.375
825.07;79.125
825.63;76.875
826.19;84.125
826.74;78.875
827.30;167.63
827.86;187.88
828.42;169.13
828.97;140.88
829.53;177.13
830.09;146.38
830.64;162.13
831.20;127.38
831.76;31.125
832.31;26.875
832.87;32.125
833.43;28.375
833.98;68.125
834.54;155.88
835.10;599.13
835.65;658.88
836.21;688.63
836.77;728.38
837.32;716.63
837.88;706.38
838.43;665.63
838.99;472.38
839.55;177.13
840.10;146.38
840.66;166.13
841.21;171.38
841.77;153.13
842.33;140.88
842.88;125.13
843.44;64.875
843.99;70.125
844.55;62.375
845.11;49.625
845.66;58.375
846.22;89.625
846.77;291.38
847.33;386.13
847.88;397.38
848.44;426.63
848.99;413.38
849.55;404.13
850.10;387.38
850.66;309.63
851.21;71.875
851.77;31.125
852.32;44.875
852.88;50.625
853.43;37.875
853.99;58.125
854.54;40.875
855.10;48.125
855.65;53.375
856.21;137.13
856.76;200.38
857.32;198.63
857.87;212.88
858.43;234.13
858.98;201.38
859.54;208.63
860.09;190.38
860.64;128.13
861.20;173.38
861.75;181.63
862.31;250.38
862.86;466.13
863.41;499.88
863.97;517.13
864.52;499.88
865.08;468.63
865.63;489.88
866.18;461.13
866.74;343.38
867.29;188.13
867.85;153.38
868.40;139.13
868.95;145.88
869.51;60.125
870.06;27.375
870.61;37.125
871.17;34.375
871.72;27.125
872.27;-0.1250
872.83;26.625
873.38;26.875
873.93;37.125
874.49;61.875
875.04;168.63
875.59;365.38
876.15;485.13
876.70;450.88
877.25;506.13
877.80;485.88
878.36;434.13
878.91;391.88
879.46;264.63
880.02;63.875
880.57;45.625
881.12;25.875
881.67;27.125
882.23;49.875
882.78;87.125
883.33;109.88
883.88;162.13
884.44;183.88
884.99;207.63
885.54;175.38
886.09;209.63
886.64;140.38
887.20;86.125
887.75;75.375
888.30;23.625
888.85;37.875
889.40;47.625
889.96;25.875
890.51;35.125
891.06;34.875
891.61;31.125
892.16;37.875
892.71;39.625
893.27;14.375
893.82;17.125
894.37;8.8750
894.92;19.125
895.47;30.375
896.02;20.125
896.57;-0.6250
897.13;7.6250
897.68;11.375
898.23;17.625
898.78;9.8750
899.33;26.125
899.88;19.875
900.43;-2.8750
900.98;14.375
901.53;18.625
902.08;-8.6250
902.63;10.625
903.19;7.8750
903.74;9.6250
904.29;-9.1250
904.84;7.6250
905.39;14.875
905.94;5.6250
906.49;-3.6250
907.04;7.1250
907.59;0.8750
908.14;0.6250
908.69;20.375
909.24;-4.3750
909.79;4.8750
910.34;25.625
910.89;1.8750
911.44;6.6250
911.99;26.375
912.54;39.125
913.09;54.375
913.64;46.125
914.19;31.375
914.74;42.625
915.29;37.875
915.84;35.125
916.39;14.875
916.94;12.125
917.49;28.375
918.04;43.625
918.58;43.875
919.13;57.125
919.68;65.375
920.23;74.125
920.78;58.875
921.33;50.625
921.88;48.875
922.43;43.625
922.98;32.375
923.53;24.625
924.08;-0.1250
924.62;22.125
925.17;15.875
925.72;4.6250
926.27;1.3750
926.82;11.625
927.37;42.875
927.92;40.625
928.46;40.875
929.01;27.125
929.56;35.875
930.11;72.125
930.66;50.875
931.21;61.125
931.75;35.875
932.30;26.125
932.85;13.375
933.40;14.125
933.95;18.875
934.49;-8.8750
935.04;17.875
935.59;11.125
936.14;15.875
936.69;22.125
937.23;16.375
937.78;9.1250
938.33;10.875
938.88;15.125
939.42;11.375
939.97;26.625
940.52;30.875
941.07;13.625
941.61;10.875
942.16;25.125
942.71;9.8750
943.25;11.625
943.80;16.875
944.35;7.1250
944.90;10.375
945.44;14.125
945.99;23.875
946.54;13.625
947.08;24.875
947.63;25.125
948.18;29.375
948.72;28.125
949.27;22.875
949.82;20.625
950.36;2.8750
950.91;35.625
951.46;16.375
952.00;14.625
952.55;33.375
953.09;29.125
953.64;25.375
954.19;39.625
954.73;9.3750
955.28;7.1250
955.82;2.3750
956.37;17.125
956.92;4.3750
957.46;31.125
958.01;-7.1250
958.55;13.125
959.10;-3.1250
959.65;0.1250
960.19;9.8750
960.74;4.6250
961.28;9.3750
961.83;14.625
962.37;-1.1250
962.92;6.6250
963.46;5.8750
964.01;17.625
964.55;20.875
965.10;19.125
965.64;20.375
966.19;43.125
966.73;8.3750
967.28;13.125
967.82;10.875
968.37;-4.3750
968.91;7.3750
969.46;14.625
970.00;12.375
970.55;3.1250
971.09;-2.6250
971.64;6.6250
972.18;-0.1250
972.73;4.1250
973.27;10.375
973.82;3.6250
974.36;16.375
974.90;15.125
975.45;3.3750
975.99;6.1250
976.54;13.875
977.08;-2.8750
977.62;2.3750
978.17;10.125
978.71;9.3750
979.26;18.625
979.80;-4.6250
980.34;0.6250
980.89;9.3750
981.43;0.6250
981.97;4.3750
982.52;11.625
983.06;-2.6250
983.61;11.625
984.15;6.3750
984.69;4.6250
985.24;15.875
985.78;-2.8750
986.32;8.8750
986.87;10.125
987.41;0.8750
987.95;18.625
988.49;1.8750
989.04;7.1250
989.58;22.875
990.12;5.6250
990.67;9.8750
991.21;3.1250
991.75;3.3750
992.29;13.625
992.84;5.3750
993.38;-6.8750
993.92;1.8750
994.46;-5.3750
995.01;19.375
995.55;11.625
996.09;8.8750
996.63;11.625
997.18;0.8750
997.72;-1.3750
998.26;24.875
998.80;14.125
999.34;17.875
999.89;17.125
1000.43;-0.1250
1000.97;3.1250
1001.51;11.375
1002.05;10.625
1002.60;13.375
1003.14;3.6250
1003.68;10.875
1004.22;27.125
1004.76;8.8750
1005.30;-1.3750
1005.84;4.3750
1006.39;-10.875
1006.93;21.375
1007.47;12.625
1008.01;6.3750
1008.55;16.625
1009.09;7.8750
1009.63;12.125
1010.17;-1.1250
1010.72;5.6250
1011.26;-4.6250
1011.80;-1.8750
1012.34;-8.1250
1012.88;25.625
1013.42;-0.1250
1013.96;14.125
1014.50;4.8750
1015.04;0.6250
1015.58;53.375
1016.12;9.6250
1016.66;2.8750
1017.20;19.625
1017.74;3.8750
1018.28;-2.3750
1018.82;17.875
1019.36;-2.3750
1019.90;10.375
1020.44;24.125
1020.98;17.375
1021.52;6.6250
1022.06;-4.1250
1022.60;-3.8750
1023.14;11.375
1023.68;12.125
1024.22;-7.6250
1024.76;2.6250
1025.30;-1.6250
1025.84;-5.8750
1026.38;17.375
1026.92;4.6250
1027.46;-1.6250
1028.00;13.125
1028.54;12.875
1029.08;12.625
1029.62;-1.1250
1030.16;-3.8750
1030.70;6.3750
1031.23;11.625
1031.77;-14.625
1032.31;11.625
1032.85;-5.1250
1033.39;-6.3750
1033.93;7.8750
1034.47;-2.8750
1035.01;6.8750
1035.54;16.625
1036.08;10.375
1036.62;1.1250
1037.16;5.8750
1037.70;11.625
1038.24;5.3750
1038.78;9.1250
1039.31;4.3750
1039.85;14.625
1040.39;-1.1250
1040.93;2.1250
1041.47;-2.6250
1042.00;-7.3750
1042.54;6.8750
1043.08;-0.8750
1043.62;8.3750
1044.16;12.625
1044.69;-0.1250
1045.23;1.1250
1045.77;12.375
1046.31;-7.8750
1046.84;12.875
1047.38;3.1250
1047.92;-9.1250
1048.46;13.125
1048.99;-0.1250
1049.53;-2.3750
1050.07;-0.6250
1050.61;2.1250
1051.14;2.3750
1051.68;6.1250
1052.22;-2.1250
1052.75;20.125
1053.29;0.3750
1053.83;-4.3750
1054.36;11.375
1054.90;24.125
1055.44;7.8750
1055.97;-2.8750
1056.51;-1.1250
1057.05;10.125
1057.58;-17.125
1058.12;2.6250
1058.66;-15.125
1059.19;6.1250
1059.73;-7.6250
1060.27;11.125
1060.80;7.8750
1061.34;8.6250
1061.87;1.8750
1062.41;-2.8750
1062.95;3.3750
1063.48;5.1250
1064.02;3.8750
1064.55;6.1250
1065.09;7.8750
1065.63;12.125
1066.16;-4.6250
1066.70;2.6250
1067.23;-5.1250
1067.77;-6.3750
1068.30;-5.6250
1068.84;16.625
1069.37;14.875
1069.91;16.125
1070.44;-1.1250
1070.98;-5.8750
1071.52;-2.6250
1072.05;4.1250
1072.59;7.3750
1073.12;5.1250
1073.66;0.8750
1074.19;0.6250
1074.73;-12.125
1075.26;16.625
1075.79;9.3750
1076.33;15.125
1076.86;11.375
1077.40;14.625
1077.93;-0.1250
1078.47;17.125
1079.00;11.375
1079.54;-8.8750
1080.07;17.875
1080.60;4.1250
1081.14;22.375
1081.67;4.6250
1082.21;-12.125
1082.74;3.1250
1083.28;3.3750
1083.81;2.6250
1084.34;10.875
1084.88;-2.3750
1085.41;2.3750
1085.94;24.125
1086.48;11.875
1087.01;15.625
1087.55;12.375
1088.08;-0.3750
1088.61;16.375
1089.15;2.1250
1089.68;7.3750
1090.21;11.125
1090.75;9.8750
1091.28;-2.3750
1091.81;11.875
1092.35;-1.8750
1092.88;22.875
1093.41;11.125
1093.94;9.8750
1094.48;5.6250
1095.01;-2.6250
1095.54;12.625
1096.08;6.3750
1096.61;4.1250
1097.14;9.3750
1097.67;-4.3750
1098.21;-3.1250
1098.74;4.1250
1099.27;0.3750
1099.80;5.6250
1100.34;2.3750
