M- normal source off, visible
Integration time: 8 ms
Average: 2 scans
Nr of pixels used for smoothing: 0
Data measured with spectrometer serial number: 0608009S1
Wave   ;Sample
[nm]   ;[counts]
277.42;0.6250
278.02;12.750
278.61;6.6250
279.21;-22.750
279.80;-15.875
280.40;-3.2500
280.99;0.1250
281.59;-0.2500
282.18;-13.875
282.78;6.7500
283.37;2.1250
283.97;-8.2500
284.56;17.125
285.15;-5.2500
285.75;-8.8750
286.34;-1.7500
286.94;-13.375
287.53;-1.2500
288.13;9.6250
288.72;-7.2500
289.31;-16.375
289.91;0.2500
290.50;-6.3750
291.10;0.7500
291.69;-3.3750
292.29;12.750
292.88;12.125
293.47;0.7500
294.07;-14.375
294.66;-4.2500
295.25;-3.8750
295.85;0.2500
296.44;-31.875
297.04;-12.250
297.63;-5.3750
298.22;-10.250
298.82;-3.8750
299.41;-18.750
300.00;10.625
300.60;0.2500
301.19;6.1250
301.79;6.7500
302.38;10.125
302.97;6.7500
303.57;-10.875
304.16;-5.2500
304.75;-1.3750
305.35;0.2500
305.94;-0.3750
306.53;11.750
307.13;13.625
307.72;-6.2500
308.31;-9.8750
308.90;-1.2500
309.50;4.1250
310.09;1.2500
310.68;1.6250
311.28;1.7500
311.87;8.6250
312.46;-1.2500
313.06;20.625
313.65;-10.750
314.24;13.125
314.83;-6.2500
315.43;-5.8750
316.02;-9.2500
316.61;1.6250
317.20;6.7500
317.80;-4.8750
318.39;-2.2500
318.98;11.125
319.57;2.2500
320.17;4.6250
320.76;-7.2500
321.35;2.6250
321.94;3.2500
322.54;3.1250
323.13;-7.2500
323.72;-10.375
324.31;-15.250
324.90;-3.8750
325.50;-2.2500
326.09;-9.3750
326.68;-7.7500
327.27;-15.875
327.87;1.7500
328.46;-6.8750
329.05;2.2500
329.64;-10.875
330.23;-3.7500
330.82;-7.3750
331.42;-6.7500
332.01;5.6250
332.60;-15.250
333.19;-1.8750
333.78;-6.7500
334.37;4.1250
334.97;-5.7500
335.56;-9.8750
336.15;12.750
336.74;1.1250
337.33;-6.7500
337.92;-5.8750
338.52;13.750
339.11;-8.8750
339.70;-12.250
340.29;-9.3750
340.88;-11.250
341.47;-1.8750
342.06;2.7500
342.65;4.1250
343.25;3.7500
343.84;9.1250
344.43;-4.7500
345.02;0.6250
345.61;8.2500
346.20;-7.8750
346.79;2.2500
347.38;-11.875
347.97;-0.7500
348.56;-0.8750
349.15;-9.7500
349.74;-22.875
350.34;-6.2500
350.93;-11.375
351.52;-5.7500
352.11;-0.8750
352.70;-5.7500
353.29;-1.3750
353.88;-9.2500
354.47;-9.3750
355.06;-2.2500
355.65;-19.875
356.24;-25.750
356.83;3.6250
357.42;8.2500
358.01;-2.8750
358.60;-11.750
359.19;-17.875
359.78;-11.750
360.37;4.1250
360.96;-5.2500
361.55;-19.875
362.14;-0.2500
362.73;4.1250
363.32;-9.2500
363.91;-12.375
364.50;0.2500
365.09;-8.3750
365.68;2.2500
366.27;-11.875
366.86;-1.7500
367.45;-2.8750
368.04;-8.2500
368.63;-15.875
369.22;-3.2500
369.81;-10.875
370.40;-12.250
370.99;-10.375
371.58;-15.250
372.17;-7.3750
372.76;-9.7500
373.34;0.6250
373.93;-4.2500
374.52;15.625
375.11;-7.2500
375.70;2.6250
376.29;2.7500
376.88;-2.8750
377.47;6.7500
378.06;-10.875
378.65;15.250
379.24;1.1250
379.82;2.2500
380.41;-12.875
381.00;-2.7500
381.59;23.625
382.18;-7.7500
382.77;-10.875
383.36;-2.7500
383.95;7.6250
384.54;2.7500
385.12;-3.8750
385.71;6.2500
386.30;-11.875
386.89;-3.7500
387.48;-9.3750
388.07;-11.250
388.65;-10.375
389.24;6.7500
389.83;0.1250
390.42;-5.2500
391.01;14.625
391.60;9.2500
392.18;-10.875
392.77;-10.750
393.36;-2.3750
393.95;-12.250
394.54;-12.375
395.12;-12.250
395.71;-1.8750
396.30;-18.250
396.89;-12.375
397.48;-0.7500
398.06;0.1250
398.65;-3.7500
399.24;-9.3750
399.83;-9.2500
400.41;-4.3750
401.00;-10.250
401.59;-14.375
402.18;-3.2500
402.77;10.125
403.35;-5.7500
403.94;-3.8750
404.53;-5.2500
405.11;-10.875
405.70;-14.750
406.29;-15.875
406.88;-5.7500
407.46;-5.3750
408.05;9.7500
408.64;-1.3750
409.23;-3.2500
409.81;14.125
410.40;4.2500
410.99;6.1250
411.57;-6.2500
412.16;-0.3750
412.75;-1.2500
413.33;-5.8750
413.92;-6.2500
414.51;5.6250
415.10;-7.7500
415.68;-11.375
416.27;-3.2500
416.86;1.6250
417.44;5.2500
418.03;-11.875
418.61;-7.7500
419.20;-9.8750
419.79;-5.7500
420.37;-0.8750
420.96;-9.7500
421.55;-5.8750
422.13;-14.250
422.72;-5.8750
423.31;-9.7500
423.89;-11.375
424.48;-13.750
425.06;2.1250
425.65;1.2500
426.24;-15.375
426.82;18.750
427.41;-22.375
427.99;-9.7500
428.58;-7.8750
429.17;-6.2500
429.75;-10.375
430.34;-18.250
430.92;-5.3750
431.51;10.750
432.10;-10.875
432.68;-10.250
433.27;-1.3750
433.85;11.750
434.44;4.6250
435.02;-7.2500
435.61;8.1250
436.19;-6.2500
436.78;0.6250
437.37;-4.2500
437.95;-16.375
438.54;-7.7500
439.12;-6.8750
439.71;2.2500
440.29;-2.3750
440.88;16.250
441.46;3.1250
442.05;-13.250
442.63;-12.875
443.22;-12.250
443.80;10.625
444.39;8.7500
444.97;-7.8750
445.56;15.750
446.14;1.6250
446.73;-5.7500
447.31;-0.8750
447.90;-4.2500
448.48;11.625
449.07;7.2500
449.65;0.6250
450.23;17.250
450.82;1.1250
451.40;-9.7500
451.99;-4.8750
452.57;3.2500
453.16;13.125
453.74;6.7500
454.33;8.1250
454.91;-10.750
455.49;6.6250
456.08;-4.7500
456.66;3.6250
457.25;-8.2500
457.83;9.1250
458.41;15.250
459.00;-1.3750
459.58;0.2500
460.17;-3.8750
460.75;-2.7500
461.33;2.1250
461.92;7.7500
462.50;10.625
463.09;-0.2500
463.67;2.6250
464.25;-2.2500
464.84;6.6250
465.42;-10.250
466.00;-23.875
466.59;-0.2500
467.17;0.6250
467.75;7.7500
468.34;1.1250
468.92;12.250
469.50;-0.3750
470.09;-18.750
470.67;1.1250
471.25;-4.2500
471.84;11.125
472.42;-6.7500
473.00;-8.3750
473.59;4.2500
474.17;3.6250
474.75;-4.7500
475.34;-16.375
475.92;-0.2500
476.50;5.1250
477.08;12.750
477.67;-8.3750
478.25;2.2500
478.83;-10.875
479.42;-14.250
480.00;0.1250
480.58;-3.2500
481.16;21.125
481.75;-7.7500
482.33;-19.375
482.91;-4.7500
483.49;-1.8750
484.08;-10.250
484.66;-21.875
485.24;-5.2500
485.82;13.625
486.40;1.2500
486.99;-8.8750
487.57;6.7500
488.15;10.625
488.73;-1.2500
489.32;3.6250
489.90;-6.2500
490.48;12.625
491.06;-1.7500
491.64;-3.8750
492.22;-1.7500
492.81;5.6250
493.39;6.7500
493.97;-27.875
494.55;-7.7500
495.13;8.6250
495.72;6.2500
496.30;-7.8750
496.88;-0.2500
497.46;5.6250
498.04;4.7500
498.62;6.1250
499.20;-2.7500
499.79;1.6250
500.37;-6.7500
500.95;-8.3750
501.53;-7.2500
502.11;-4.8750
502.69;7.2500
503.27;2.6250
503.85;7.7500
504.44;12.125
505.02;26.250
505.60;8.1250
506.18;2.7500
506.76;-2.3750
507.34;16.250
507.92;5.1250
508.50;-14.750
509.08;19.125
509.66;-1.7500
510.24;-13.875
510.82;-7.7500
511.40;8.1250
511.99;15.750
512.57;-7.8750
513.15;-2.7500
513.73;15.125
514.31;7.7500
514.89;4.1250
515.47;13.250
516.05;17.125
516.63;22.250
517.21;0.6250
517.79;11.750
518.37;3.1250
518.95;4.2500
519.53;0.1250
520.11;-9.2500
520.69;-4.8750
521.27;-4.7500
521.85;5.6250
522.43;8.7500
523.01;5.6250
523.59;24.750
524.17;-5.8750
524.75;4.7500
525.33;4.6250
525.91;11.250
526.49;3.6250
527.07;-6.7500
527.65;5.1250
528.23;-1.2500
528.80;1.1250
529.38;6.7500
529.96;1.1250
530.54;-0.7500
531.12;-4.8750
531.70;4.2500
532.28;-4.3750
532.86;7.2500
533.44;13.625
534.02;6.7500
534.60;-8.8750
535.18;-0.2500
535.76;-2.3750
536.33;8.2500
536.91;15.125
537.49;-5.7500
538.07;5.6250
538.65;-18.250
539.23;-13.875
539.81;5.2500
540.39;7.6250
540.96;11.250
541.54;-0.8750
542.12;2.7500
542.70;12.625
543.28;-9.2500
543.86;5.1250
544.43;9.2500
545.01;-5.3750
545.59;3.2500
546.17;12.625
546.75;5.2500
547.33;2.6250
547.90;5.2500
548.48;5.6250
549.06;7.2500
549.64;-1.3750
550.22;9.2500
550.79;-6.8750
551.37;-2.7500
551.95;-4.8750
552.53;11.750
553.11;1.6250
553.68;-10.250
554.26;1.6250
554.84;4.7500
555.42;2.6250
555.99;3.2500
556.57;1.1250
557.15;-6.7500
557.73;-2.8750
558.30;6.7500
558.88;12.125
559.46;6.2500
560.04;-10.375
560.61;2.2500
561.19;-0.8750
561.77;-2.2500
562.35;-2.8750
562.92;-7.7500
563.50;3.1250
564.08;2.2500
564.65;-5.8750
565.23;-4.2500
565.81;2.1250
566.38;-8.2500
566.96;-2.8750
567.54;7.2500
568.11;6.1250
568.69;2.2500
569.27;3.6250
569.84;-11.250
570.42;-15.375
571.00;-3.7500
571.57;-10.875
572.15;2.7500
572.73;-1.3750
573.30;12.250
573.88;-0.3750
574.46;17.250
575.03;8.1250
575.61;-8.7500
576.18;-2.8750
576.76;2.7500
577.34;-0.8750
577.91;8.7500
578.49;10.625
579.07;-11.750
579.64;15.625
580.22;-3.7500
580.79;-12.375
581.37;2.2500
581.94;12.625
582.52;20.750
583.10;-3.8750
583.67;5.2500
584.25;0.6250
584.82;-0.2500
585.40;11.125
585.97;-4.7500
586.55;0.6250
587.12;4.7500
587.70;8.1250
588.28;-13.750
588.85;7.6250
589.43;11.250
590.00;0.6250
590.58;-1.2500
591.15;13.625
591.73;-7.2500
592.30;-5.8750
592.88;3.7500
593.45;0.6250
594.03;29.250
594.60;-6.3750
595.18;8.7500
595.75;-9.3750
596.33;11.750
596.90;-9.3750
597.48;-13.250
598.05;11.625
598.63;9.7500
599.20;-4.3750
599.77;-4.2500
600.35;1.1250
600.92;0.2500
601.50;-21.875
602.07;-3.2500
602.65;-0.3750
603.22;8.7500
603.79;-2.3750
604.37;0.7500
604.94;2.1250
605.52;7.7500
606.09;-4.3750
606.67;-18.250
607.24;-3.8750
607.81;7.7500
608.39;-10.375
608.96;-1.2500
609.54;-8.3750
610.11;22.750
610.68;-4.3750
611.26;10.750
611.83;0.1250
612.40;14.750
612.98;0.6250
613.55;3.7500
614.12;-10.875
614.70;1.2500
615.27;-3.3750
615.84;-9.2500
616.42;-0.3750
616.99;5.2500
617.56;-6.3750
618.14;-2.2500
618.71;-4.8750
619.28;-3.2500
619.86;-17.875
620.43;4.2500
621.00;-14.875
621.58;23.250
622.15;-13.375
622.72;-6.2500
623.30;-12.875
623.87;8.7500
624.44;6.1250
625.01;-23.750
625.59;0.1250
626.16;5.7500
626.73;-4.8750
627.30;-2.2500
627.88;0.1250
628.45;10.750
629.02;2.1250
629.59;-1.7500
630.17;-5.8750
630.74;13.250
631.31;3.1250
631.88;6.2500
632.46;-4.8750
633.03;-2.7500
633.60;-7.3750
634.17;-8.2500
634.74;7.6250
635.32;-0.7500
635.89;-2.3750
636.46;-20.750
637.03;6.1250
637.60;-3.2500
638.18;-12.875
638.75;6.7500
639.32;-5.3750
639.89;7.7500
640.46;-12.375
641.03;-1.2500
641.61;-10.875
642.18;1.7500
642.75;-0.8750
643.32;-6.7500
643.89;-10.875
644.46;-25.750
645.03;-15.875
645.60;-7.2500
646.18;-6.3750
646.75;2.7500
647.32;6.1250
647.89;-3.7500
648.46;-5.8750
649.03;16.750
649.60;-1.3750
650.17;8.7500
650.74;-10.375
651.31;0.2500
651.89;-3.8750
652.46;-8.2500
653.03;1.6250
653.60;-14.250
654.17;0.1250
654.74;5.7500
655.31;-3.3750
655.88;-8.2500
656.45;-8.3750
657.02;5.2500
657.59;2.1250
658.16;-1.2500
658.73;-4.8750
659.30;-11.750
659.87;-14.375
660.44;-3.2500
661.01;-6.8750
661.58;-2.2500
662.15;1.6250
662.72;-1.2500
663.29;2.6250
663.86;-7.7500
664.43;-4.8750
665.00;-2.7500
665.57;-2.3750
666.14;-11.250
666.71;1.1250
667.28;-6.7500
667.85;1.6250
668.42;-3.7500
668.99;-11.375
669.56;-9.2500
670.13;-20.875
670.70;3.7500
671.27;2.1250
671.84;18.750
672.41;-5.8750
672.98;11.750
673.54;10.125
674.11;-11.750
674.68;3.6250
675.25;-3.7500
675.82;-4.8750
676.39;-1.7500
676.96;-12.875
677.53;-12.750
678.10;11.625
678.67;-6.2500
679.23;-18.375
679.80;-10.750
680.37;-0.8750
680.94;15.750
681.51;-0.8750
682.08;-3.7500
682.65;-1.8750
683.21;-18.250
683.78;13.125
684.35;-3.7500
684.92;4.6250
685.49;-11.750
686.06;0.6250
686.62;-1.7500
687.19;-2.8750
687.76;1.7500
688.33;-24.375
688.90;-7.2500
689.46;2.6250
690.03;8.7500
690.60;-9.8750
691.17;0.7500
691.74;0.1250
692.30;-9.2500
692.87;0.1250
693.44;-6.2500
694.01;1.6250
694.57;-15.250
695.14;-6.3750
695.71;-8.7500
696.28;-8.8750
696.84;4.7500
697.41;-17.375
697.98;-3.7500
698.55;4.6250
699.11;6.7500
699.68;-2.3750
700.25;-7.2500
700.82;3.6250
701.38;-6.2500
701.95;-15.875
702.52;-7.2500
703.08;5.6250
703.65;-13.750
704.22;-3.8750
704.78;-9.2500
705.35;-3.8750
705.92;8.2500
706.48;-20.375
707.05;8.2500
707.62;0.1250
708.18;7.7500
708.75;-0.8750
709.32;-5.2500
709.88;7.6250
710.45;-9.2500
711.02;-3.3750
711.58;-14.750
712.15;10.125
712.72;-3.2500
713.28;-12.875
713.85;-14.250
714.41;9.1250
714.98;-4.2500
715.55;-13.375
716.11;-2.7500
716.68;-1.3750
717.24;7.7500
717.81;-14.375
718.38;-9.2500
718.94;3.1250
719.51;4.2500
720.07;-4.8750
720.64;4.2500
721.20;13.125
721.77;-0.2500
722.33;-6.8750
722.90;-29.750
723.47;-14.375
724.03;-8.7500
724.60;-6.8750
725.16;-19.250
725.73;-6.8750
726.29;8.7500
726.86;-12.875
727.42;-8.2500
727.99;-0.8750
728.55;-7.7500
729.12;-1.3750
729.68;-16.250
730.25;7.6250
730.81;-9.2500
731.38;-1.8750
731.94;-16.750
732.51;1.6250
733.07;-2.2500
733.64;-7.3750
734.20;-14.250
734.76;0.6250
735.33;9.7500
735.89;-4.3750
736.46;-8.7500
737.02;2.1250
737.59;6.7500
738.15;-4.3750
738.72;-4.2500
739.28;3.1250
739.84;2.2500
740.41;-6.3750
740.97;-17.750
741.54;-17.875
742.10;3.2500
742.66;-3.3750
743.23;-7.7500
743.79;-1.3750
744.35;11.750
744.92;-2.8750
745.48;-9.2500
746.05;-8.3750
746.61;-10.250
747.17;-8.3750
747.74;-4.2500
748.30;16.125
748.86;-8.7500
749.43;-11.375
749.99;-16.250
750.55;-2.8750
751.12;-7.2500
751.68;-1.8750
752.24;-6.2500
752.81;-7.8750
753.37;-5.7500
753.93;0.1250
754.50;-3.7500
755.06;-0.8750
755.62;4.7500
756.18;-13.875
756.75;-10.750
757.31;-12.875
757.87;-0.7500
758.44;-9.8750
759.00;-12.250
759.56;-22.875
760.12;1.7500
760.69;1.6250
761.25;-11.750
761.81;-6.8750
762.37;-3.7500
762.94;-8.8750
763.50;-16.750
764.06;-11.875
764.62;-9.7500
765.18;-7.8750
765.75;1.2500
766.31;-11.875
766.87;-4.7500
767.43;-3.8750
767.99;-9.2500
768.56;13.625
769.12;-12.750
769.68;6.6250
770.24;-10.750
770.80;-6.8750
771.36;-6.7500
771.93;6.6250
772.49;-7.7500
773.05;-23.375
773.61;-0.2500
774.17;-10.375
774.73;-2.7500
775.29;3.1250
775.86;-2.7500
776.42;-10.875
776.98;-19.750
777.54;-9.3750
778.10;6.2500
778.66;4.6250
779.22;-1.7500
779.78;-6.8750
780.34;-4.7500
780.91;5.6250
781.47;-5.7500
782.03;-22.875
782.59;-12.750
783.15;-10.875
783.71;-13.750
784.27;-18.375
784.83;-21.750
785.39;0.6250
785.95;-24.250
786.51;-16.875
787.07;-1.7500
787.63;-3.8750
788.19;4.7500
788.75;-9.3750
789.31;-10.750
789.87;-2.8750
790.43;-9.2500
790.99;-8.3750
791.55;-14.250
792.11;-13.375
792.67;-1.2500
793.23;-24.875
793.79;-3.2500
794.35;-4.8750
794.91;-7.2500
795.47;-12.375
796.03;-1.7500
796.59;-2.3750
797.15;-19.250
797.71;-11.875
798.27;-20.750
798.83;-7.3750
799.39;2.7500
799.95;-7.8750
800.51;-9.7500
801.07;-7.8750
801.63;-4.2500
802.19;-13.375
802.75;-3.2500
803.30;-4.3750
803.86;5.2500
804.42;-16.875
804.98;-11.250
805.54;10.625
806.10;-7.2500
806.66;-3.8750
807.22;-21.750
807.78;2.1250
808.33;-7.2500
808.89;-9.8750
809.45;-11.250
810.01;-6.8750
810.57;-12.250
811.13;-15.375
811.69;1.2500
812.24;-1.8750
812.80;10.750
813.36;1.1250
813.92;-11.250
814.48;-0.3750
815.03;-12.250
815.59;-16.875
816.15;-18.750
816.71;0.1250
817.27;-2.7500
817.82;-7.3750
818.38;-8.7500
818.94;-5.8750
819.50;-10.250
820.06;-18.875
820.61;-2.7500
821.17;-7.8750
821.73;-1.2500
822.29;-6.8750
822.84;-9.7500
823.40;0.1250
823.96;-3.2500
824.52;-6.3750
825.07;-14.250
825.63;-4.8750
826.19;-8.7500
826.74;-13.375
827.30;-9.7500
827.86;2.6250
828.42;-6.2500
828.97;-19.375
829.53;-3.2500
830.09;2.6250
830.64;13.250
831.20;1.6250
831.76;-7.2500
832.31;-8.3750
832.87;-16.250
833.43;3.6250
833.98;-15.250
834.54;2.1250
835.10;-24.750
835.65;-23.875
836.21;-16.250
836.77;-3.3750
837.32;-4.2500
837.88;-17.375
838.43;-12.250
838.99;-8.8750
839.55;7.7500
840.10;-1.3750
840.66;-11.750
841.21;-21.875
841.77;-1.7500
842.33;-5.3750
842.88;-7.2500
843.44;-9.8750
843.99;10.250
844.55;10.125
845.11;-4.2500
845.66;-5.8750
846.22;-2.2500
846.77;-4.8750
847.33;5.2500
847.88;-4.3750
848.44;9.2500
848.99;4.6250
849.55;-11.250
850.10;-5.3750
850.66;-15.750
851.21;3.1250
851.77;-10.250
852.32;-7.8750
852.88;-12.750
853.43;-9.3750
853.99;-10.250
854.54;-10.875
855.10;-0.2500
855.65;-13.375
856.21;-4.2500
856.76;-2.8750
857.32;2.7500
857.87;-15.375
858.43;-16.250
858.98;-11.375
859.54;0.2500
860.09;-25.375
860.64;-16.750
861.20;-5.8750
861.75;-3.7500
862.31;11.125
862.86;-7.2500
863.41;-8.8750
863.97;-2.7500
864.52;7.1250
865.08;-11.750
865.63;-3.3750
866.18;4.2500
866.74;-3.3750
867.29;-1.2500
867.85;-4.3750
868.40;-4.2500
868.95;-3.3750
869.51;-1.7500
870.06;0.1250
870.61;-12.250
871.17;-8.8750
871.72;16.750
872.27;3.6250
872.83;-8.2500
873.38;-6.3750
873.93;2.7500
874.49;-2.8750
875.04;-12.750
875.59;4.6250
876.15;2.7500
876.70;-13.375
877.25;8.7500
877.80;5.6250
878.36;-3.2500
878.91;-1.3750
879.46;-6.7500
880.02;6.6250
880.57;-2.2500
881.12;-4.8750
881.67;9.2500
882.23;10.125
882.78;2.2500
883.33;-12.375
883.88;-9.2500
884.44;-7.3750
884.99;-3.2500
885.54;7.6250
886.09;-11.250
886.64;-10.875
887.20;7.2500
887.75;-6.8750
888.30;-0.7500
888.85;2.1250
889.40;4.2500
889.96;-0.8750
890.51;-18.250
891.06;0.1250
891.61;-0.7500
892.16;-15.375
892.71;-11.250
893.27;3.1250
893.82;4.7500
894.37;1.1250
894.92;-1.2500
895.47;-7.8750
896.02;-1.7500
896.57;-16.375
897.13;-14.250
897.68;8.6250
898.23;13.750
898.78;-21.375
899.33;3.7500
899.88;24.125
900.43;0.7500
900.98;-0.3750
901.53;-16.750
902.08;1.6250
902.63;12.250
903.19;-1.8750
903.74;-2.7500
904.29;-6.3750
904.84;5.2500
905.39;-13.875
905.94;-7.2500
906.49;-8.8750
907.04;9.7500
907.59;9.1250
908.14;3.7500
908.69;1.1250
909.24;8.7500
909.79;0.6250
910.34;-9.7500
910.89;-9.8750
911.44;-0.7500
911.99;-2.3750
912.54;-7.7500
913.09;4.6250
913.64;6.7500
914.19;-9.3750
914.74;-24.250
915.29;-3.3750
915.84;6.2500
916.39;-1.3750
916.94;-10.250
917.49;-6.3750
918.04;-4.7500
918.58;2.6250
919.13;-16.750
919.68;5.1250
920.23;-0.7500
920.78;7.6250
921.33;-10.750
921.88;-4.3750
922.43;-2.2500
922.98;-12.875
923.53;-16.250
924.08;-10.375
924.62;-0.7500
925.17;-25.375
925.72;-1.2500
926.27;-8.3750
926.82;7.2500
927.37;-5.8750
927.92;-12.250
928.46;-4.3750
929.01;5.2500
929.56;4.6250
930.11;-0.2500
930.66;-6.3750
931.21;0.7500
931.75;-5.3750
932.30;-13.750
932.85;-3.3750
933.40;6.2500
933.95;-3.8750
934.49;-8.7500
935.04;-1.3750
935.59;-0.2500
936.14;-3.3750
936.69;-8.2500
937.23;1.1250
937.78;-0.7500
938.33;3.6250
938.88;2.2500
939.42;8.6250
939.97;10.750
940.52;-4.3750
941.07;-0.2500
941.61;-11.375
942.16;14.750
942.71;-3.3750
943.25;-7.2500
943.80;2.1250
944.35;-5.2500
944.90;-4.8750
945.44;1.2500
945.99;-9.8750
946.54;9.2500
947.08;1.1250
947.63;-10.250
948.18;-2.8750
948.72;-9.7500
949.27;-5.3750
949.82;-18.750
950.36;-19.875
950.91;4.7500
951.46;8.6250
952.00;-5.2500
952.55;-17.375
953.09;9.7500
953.64;-6.8750
954.19;-31.750
954.73;-1.3750
955.28;-13.250
955.82;0.1250
956.37;-11.750
956.92;-12.375
957.46;-13.250
958.01;-14.875
958.55;-8.2500
959.10;-18.375
959.65;-4.7500
960.19;-2.8750
960.74;-14.750
961.28;-3.3750
961.83;-9.2500
962.37;-6.8750
962.92;-16.250
963.46;-0.8750
964.01;-3.2500
964.55;7.1250
965.10;-13.750
965.64;-8.8750
966.19;-9.2500
966.73;7.1250
967.28;-7.2500
967.82;-11.875
968.37;-13.750
968.91;-1.3750
969.46;1.2500
970.00;-8.8750
970.55;3.7500
971.09;-19.375
971.64;4.7500
972.18;-10.375
972.73;0.7500
973.27;-0.3750
973.82;-17.250
974.36;-13.375
974.90;-15.250
975.45;-2.3750
975.99;-9.7500
976.54;-21.875
977.08;-7.7500
977.62;-9.3750
978.17;-3.7500
978.71;-21.375
979.26;-0.2500
979.80;1.1250
980.34;-11.750
980.89;-13.875
981.43;-15.750
981.97;-3.3750
982.52;-9.7500
983.06;-14.875
983.61;-23.250
984.15;-9.3750
984.69;3.2500
985.24;-4.8750
985.78;-5.2500
986.32;3.1250
986.87;-1.2500
987.41;-16.375
987.95;-2.7500
988.49;5.6250
989.04;3.7500
989.58;-2.8750
990.12;-1.7500
990.67;-16.875
991.21;-4.2500
991.75;-6.8750
992.29;-20.250
992.84;-1.8750
993.38;1.7500
993.92;9.1250
994.46;-10.250
995.01;-8.3750
995.55;-1.2500
996.09;-5.3750
996.63;6.7500
997.18;3.6250
997.72;3.2500
998.26;-14.375
998.80;-9.2500
999.34;4.1250
999.89;0.2500
1000.43;7.6250
1000.97;0.7500
1001.51;12.125
1002.05;10.250
1002.60;-5.3750
1003.14;-9.7500
1003.68;-4.3750
1004.22;0.7500
1004.76;-7.3750
1005.30;-6.2500
1005.84;2.6250
1006.39;-0.7500
1006.93;-12.875
1007.47;-15.250
1008.01;-6.3750
1008.55;-13.250
1009.09;-5.3750
1009.63;-16.250
1010.17;-3.3750
1010.72;6.7500
1011.26;9.6250
1011.80;-15.750
1012.34;7.6250
1012.88;-2.2500
1013.42;-18.875
1013.96;-3.7500
1014.50;-7.3750
1015.04;2.7500
1015.58;-20.375
1016.12;-12.750
1016.66;-21.875
1017.20;-8.2500
1017.74;-10.875
1018.28;-11.750
1018.82;-3.8750
1019.36;-3.2500
1019.90;1.1250
1020.44;-5.2500
1020.98;-10.375
1021.52;-8.2500
1022.06;-16.875
1022.60;-14.250
1023.14;-5.8750
1023.68;0.7500
1024.22;3.1250
1024.76;5.7500
1025.30;-18.375
1025.84;1.2500
1026.38;-7.8750
1026.92;3.2500
1027.46;0.1250
1028.00;-21.250
1028.54;5.1250
1029.08;2.2500
1029.62;-16.875
1030.16;-16.250
1030.70;-5.3750
1031.23;-12.750
1031.77;-14.875
1032.31;0.2500
1032.85;3.1250
1033.39;0.2500
1033.93;-6.3750
1034.47;-11.250
1035.01;-10.875
1035.54;-5.2500
1036.08;0.6250
1036.62;-11.250
1037.16;1.1250
1037.70;-6.2500
1038.24;-13.875
1038.78;-21.750
1039.31;-1.8750
1039.85;7.7500
1040.39;-6.8750
1040.93;-3.7500
1041.47;-0.3750
1042.00;15.750
1042.54;-1.8750
1043.08;-5.7500
1043.62;-12.375
1044.16;-10.250
1044.69;3.6250
1045.23;-18.750
1045.77;-6.3750
1046.31;-13.750
1046.84;-16.375
1047.38;-17.250
1047.92;-2.8750
1048.46;-5.7500
1048.99;-20.375
1049.53;1.2500
1050.07;4.1250
1050.61;7.2500
1051.14;-3.8750
1051.68;2.2500
1052.22;-11.375
1052.75;-4.7500
1053.29;-1.8750
1053.83;-22.750
1054.36;-0.8750
1054.90;-5.7500
1055.44;7.1250
1055.97;-14.250
1056.51;-15.875
1057.05;-3.2500
1057.58;5.6250
1058.12;-13.250
1058.66;-7.8750
1059.19;1.2500
1059.73;10.125
1060.27;-2.7500
1060.80;-11.875
1061.34;-4.2500
1061.87;-0.8750
1062.41;-1.7500
1062.95;-11.375
1063.48;3.2500
1064.02;-7.8750
1064.55;-3.2500
1065.09;0.1250
1065.63;-6.7500
1066.16;0.6250
1066.70;1.2500
1067.23;2.1250
1067.77;0.7500
1068.30;-12.875
1068.84;1.2500
1069.37;-9.8750
1069.91;-6.7500
1070.44;0.6250
1070.98;-12.250
1071.52;8.1250
1072.05;-3.2500
1072.59;17.625
1073.12;-1.7500
1073.66;-7.8750
1074.19;-3.2500
1074.73;12.625
1075.26;-9.2500
1075.79;-6.8750
1076.33;-7.7500
1076.86;0.1250
1077.40;2.7500
1077.93;-10.375
1078.47;-0.2500
1079.00;3.6250
1079.54;7.7500
1080.07;-7.3750
1080.60;17.250
1081.14;12.625
1081.67;-1.2500
1082.21;-16.375
1082.74;-6.2500
1083.28;0.6250
1083.81;-9.2500
1084.34;-3.8750
1084.88;-20.750
1085.41;-3.8750
1085.94;4.7500
1086.48;-8.8750
1087.01;1.7500
1087.55;-7.8750
1088.08;5.7500
1088.61;0.1250
1089.15;-13.250
1089.68;-3.8750
1090.21;-1.7500
1090.75;-9.3750
1091.28;-5.7500
1091.81;8.1250
1092.35;-15.250
1092.88;-14.875
1093.41;4.2500
1093.94;5.1250
1094.48;11.250
1095.01;1.6250
1095.54;-14.250
1096.08;-2.8750
1096.61;18.250
1097.14;3.1250
1097.67;-9.2500
1098.21;10.625
1098.74;0.7500
1099.27;-0.3750
1099.80;3.7500
1100.34;-4.8750
