M- sun bkg
Integration time: 4 ms
Average: 2 scans
Nr of pixels used for smoothing: 0
Data measured with spectrometer serial number: 0608009S1
Wave   ;Sample
[nm]   ;[counts]
277.42;-5.3750
278.02;-2.0000
278.61;-3.8750
279.21;-2.0000
279.80;6.6250
280.40;5.0000
280.99;2.1250
281.59;0
282.18;-4.3750
282.78;-1.5000
283.37;-6.8750
283.97;3.5000
284.56;3.6250
285.15;-3.0000
285.75;8.6250
286.34;-1.5000
286.94;2.1250
287.53;15.000
288.13;-1.8750
288.72;-0.5000
289.31;13.625
289.91;-0.5000
290.50;12.625
291.10;-7.5000
291.69;2.1250
292.29;2.5000
292.88;4.6250
293.47;5.5000
294.07;12.125
294.66;6.0000
295.25;-0.3750
295.85;-7.5000
296.44;-1.8750
297.04;6.0000
297.63;-2.8750
298.22;4.0000
298.82;10.125
299.41;-0.5000
300.00;-2.8750
300.60;1.0000
301.19;-12.375
301.79;11.500
302.38;-8.3750
302.97;4.0000
303.57;20.125
304.16;-1.5000
304.75;1.1250
305.35;1.5000
305.94;14.125
306.53;1.5000
307.13;-4.3750
307.72;-2.5000
308.31;16.125
308.90;-1.5000
309.50;2.6250
310.09;4.0000
310.68;-17.375
311.28;12.000
311.87;5.6250
312.46;10.500
313.06;19.625
313.65;3.5000
314.24;0.6250
314.83;2.0000
315.43;14.125
316.02;9.5000
316.61;21.625
317.20;14.500
317.80;20.625
318.39;10.0000
318.98;20.625
319.57;9.5000
320.17;-2.3750
320.76;18.500
321.35;4.1250
321.94;8.5000
322.54;15.625
323.13;-1.0000
323.72;-3.3750
324.31;19.000
324.90;8.1250
325.50;13.500
326.09;11.125
326.68;18.000
327.27;15.625
327.87;6.5000
328.46;4.1250
329.05;-0.5000
329.64;11.625
330.23;21.000
330.82;6.1250
331.42;6.5000
332.01;10.125
332.60;0
333.19;-9.8750
333.78;1.5000
334.37;12.125
334.97;10.0000
335.56;17.625
336.15;2.5000
336.74;5.6250
337.33;10.0000
337.92;7.6250
338.52;16.500
339.11;-5.3750
339.70;9.0000
340.29;0.1250
340.88;-1.0000
341.47;21.625
342.06;-3.0000
342.65;-0.3750
343.25;5.0000
343.84;20.625
344.43;3.5000
345.02;17.125
345.61;-10.500
346.20;3.1250
346.79;-0.5000
347.38;6.6250
347.97;7.5000
348.56;12.625
349.15;11.000
349.74;-0.8750
350.34;-5.0000
350.93;10.625
351.52;-0.5000
352.11;-9.8750
352.70;-6.5000
353.29;11.125
353.88;6.5000
354.47;19.625
355.06;1.5000
355.65;17.625
356.24;1.0000
356.83;10.125
357.42;10.500
358.01;14.125
358.60;3.0000
359.19;1.1250
359.78;6.5000
360.37;3.1250
360.96;2.0000
361.55;8.6250
362.14;2.5000
362.73;3.6250
363.32;3.5000
363.91;4.6250
364.50;2.5000
365.09;11.125
365.68;-7.0000
366.27;-2.3750
366.86;-6.5000
367.45;10.625
368.04;9.0000
368.63;-7.8750
369.22;1.0000
369.81;8.6250
370.40;1.5000
370.99;-3.3750
371.58;6.0000
372.17;-1.8750
372.76;5.5000
373.34;6.1250
373.93;-3.5000
374.52;15.125
375.11;1.0000
375.70;0.1250
376.29;7.5000
376.88;18.625
377.47;-2.5000
378.06;10.125
378.65;8.0000
379.24;-13.375
379.82;-1.5000
380.41;10.625
381.00;2.5000
381.59;3.6250
382.18;12.000
382.77;19.125
383.36;2.5000
383.95;2.1250
384.54;5.0000
385.12;4.6250
385.71;0
386.30;16.625
386.89;21.500
387.48;8.6250
388.07;9.5000
388.65;-20.375
389.24;15.000
389.83;5.6250
390.42;5.0000
391.01;21.625
391.60;16.000
392.18;2.1250
392.77;16.500
393.36;-14.375
393.95;0
394.54;5.6250
395.12;0.5000
395.71;17.625
396.30;5.0000
396.89;10.125
397.48;8.0000
398.06;-9.3750
398.65;8.0000
399.24;16.625
399.83;14.000
400.41;16.125
401.00;10.0000
401.59;25.625
402.18;-1.5000
402.77;6.6250
403.35;-5.0000
403.94;-0.8750
404.53;12.500
405.11;25.125
405.70;8.0000
406.29;14.125
406.88;10.0000
407.46;0.1250
408.05;8.5000
408.64;5.1250
409.23;2.0000
409.81;18.125
410.40;34.000
410.99;2.1250
411.57;13.000
412.16;7.6250
412.75;0
413.33;5.6250
413.92;-1.5000
414.51;22.125
415.10;10.0000
415.68;15.125
416.27;9.5000
416.86;-5.8750
417.44;20.000
418.03;17.625
418.61;15.500
419.20;6.6250
419.79;9.5000
420.37;-21.375
420.96;8.5000
421.55;4.6250
422.13;13.500
422.72;12.625
423.31;-7.5000
423.89;18.625
424.48;0
425.06;15.125
425.65;2.5000
426.24;-4.8750
426.82;10.0000
427.41;21.125
427.99;0.5000
428.58;5.1250
429.17;19.500
429.75;-13.375
430.34;15.000
430.92;4.1250
431.51;6.5000
432.10;8.6250
432.68;7.5000
433.27;9.6250
433.85;11.000
434.44;19.125
435.02;7.0000
435.61;2.6250
436.19;20.500
436.78;24.125
437.37;14.500
437.95;-8.3750
438.54;8.0000
439.12;-4.8750
439.71;20.000
440.29;26.125
440.88;2.5000
441.46;9.6250
442.05;5.5000
442.63;13.125
443.22;10.500
443.80;24.125
444.39;4.0000
444.97;14.625
445.56;20.500
446.14;21.625
446.73;20.000
447.31;3.6250
447.90;13.500
448.48;2.1250
449.07;33.000
449.65;24.125
450.23;13.500
450.82;19.625
451.40;5.5000
451.99;22.125
452.57;11.000
453.16;23.625
453.74;13.000
454.33;29.125
454.91;13.500
455.49;10.125
456.08;17.000
456.66;12.125
457.25;21.000
457.83;15.125
458.41;16.000
459.00;26.625
459.58;15.500
460.17;31.625
460.75;26.500
461.33;24.125
461.92;19.000
462.50;17.125
463.09;21.500
463.67;23.125
464.25;17.000
464.84;29.125
465.42;28.000
466.00;34.125
466.59;3.0000
467.17;18.125
467.75;23.000
468.34;25.625
468.92;28.000
469.50;18.625
470.09;26.500
470.67;19.625
471.25;26.500
471.84;36.625
472.42;19.000
473.00;33.125
473.59;36.000
474.17;22.125
474.75;25.500
475.34;19.125
475.92;36.500
476.50;15.125
477.08;41.500
477.67;36.125
478.25;13.500
478.83;36.625
479.42;29.000
480.00;15.125
480.58;23.500
481.16;32.625
481.75;29.000
482.33;31.625
482.91;21.500
483.49;43.625
484.08;40.000
484.66;30.125
485.24;14.000
485.82;3.6250
486.40;23.500
486.99;27.625
487.57;33.000
488.15;9.6250
488.73;21.500
489.32;14.625
489.90;23.000
490.48;23.625
491.06;11.000
491.64;24.125
492.22;41.500
492.81;21.625
493.39;24.500
493.97;27.625
494.55;20.500
495.13;32.625
495.72;36.500
496.30;19.125
496.88;33.000
497.46;28.625
498.04;21.000
498.62;21.125
499.20;24.000
499.79;31.125
500.37;33.500
500.95;26.625
501.53;20.500
502.11;35.625
502.69;35.000
503.27;25.125
503.85;8.5000
504.44;28.625
505.02;17.000
505.60;16.625
506.18;31.500
506.76;30.125
507.34;27.500
507.92;27.125
508.50;16.500
509.08;24.125
509.66;26.500
510.24;31.125
510.82;34.000
511.40;29.625
511.99;39.500
512.57;27.625
513.15;14.000
513.73;41.125
514.31;29.500
514.89;27.625
515.47;38.500
516.05;37.625
516.63;45.000
517.21;31.625
517.79;28.000
518.37;41.625
518.95;32.000
519.53;33.125
520.11;32.000
520.69;16.125
521.27;32.500
521.85;38.125
522.43;34.500
523.01;38.625
523.59;29.000
524.17;45.125
524.75;51.000
525.33;41.125
525.91;38.000
526.49;51.125
527.07;34.500
527.65;44.625
528.23;35.000
528.80;33.125
529.38;38.000
529.96;49.125
530.54;37.500
531.12;42.125
531.70;35.500
532.28;60.125
532.86;41.500
533.44;48.625
534.02;47.500
534.60;50.625
535.18;46.000
535.76;56.125
536.33;43.500
536.91;53.625
537.49;50.500
538.07;43.125
538.65;48.500
539.23;29.125
539.81;52.500
540.39;60.125
540.96;55.500
541.54;56.625
542.12;46.500
542.70;33.125
543.28;55.000
543.86;58.125
544.43;53.000
545.01;74.625
545.59;57.500
546.17;46.125
546.75;63.000
547.33;43.625
547.90;64.000
548.48;39.125
549.06;59.000
549.64;67.125
550.22;49.500
550.79;63.625
551.37;50.500
551.95;47.625
552.53;68.500
553.11;66.625
553.68;56.500
554.26;63.125
554.84;54.000
555.42;64.625
555.99;58.000
556.57;40.625
557.15;66.000
557.73;61.625
558.30;63.000
558.88;66.125
559.46;63.500
560.04;84.625
560.61;71.500
561.19;59.625
561.77;57.500
562.35;87.125
562.92;68.000
563.50;81.125
564.08;77.500
564.65;74.125
565.23;68.500
565.81;68.625
566.38;78.000
566.96;43.625
567.54;48.500
568.11;73.625
568.69;71.500
569.27;89.625
569.84;69.000
570.42;63.625
571.00;59.000
571.57;77.125
572.15;88.500
572.73;78.125
573.30;68.000
573.88;80.625
574.46;78.000
575.03;67.625
575.61;72.000
576.18;64.625
576.76;89.500
577.34;86.125
577.91;88.500
578.49;83.625
579.07;73.500
579.64;66.125
580.22;56.500
580.79;73.125
581.37;78.000
581.94;72.125
582.52;76.000
583.10;78.625
583.67;74.500
584.25;65.125
584.82;86.000
585.40;79.125
585.97;82.500
586.55;83.125
587.12;78.500
587.70;83.125
588.28;68.000
588.85;76.125
589.43;66.000
590.00;78.625
590.58;89.000
591.15;78.125
591.73;79.000
592.30;67.625
592.88;77.000
593.45;73.625
594.03;74.500
594.60;73.625
595.18;76.000
595.75;81.125
596.33;80.000
596.90;68.625
597.48;75.500
598.05;77.625
598.63;72.500
599.20;84.625
599.77;78.000
600.35;78.125
600.92;93.000
601.50;81.625
602.07;67.000
602.65;85.125
603.22;82.500
603.79;72.125
604.37;68.500
604.94;72.625
605.52;89.000
606.09;78.125
606.67;82.500
607.24;71.125
607.81;60.500
608.39;75.125
608.96;77.000
609.54;65.125
610.11;72.500
610.68;79.125
611.26;69.500
611.83;68.125
612.40;77.500
612.98;87.125
613.55;81.000
614.12;74.125
614.70;76.500
615.27;78.625
615.84;80.500
616.42;61.125
616.99;70.000
617.56;79.625
618.14;85.000
618.71;72.125
619.28;74.500
619.86;85.625
620.43;70.000
621.00;79.625
621.58;75.500
622.15;80.625
622.72;72.000
623.30;60.625
623.87;75.000
624.44;74.125
625.01;68.500
625.59;75.625
626.16;73.000
626.73;75.625
627.30;71.000
627.88;58.125
628.45;83.500
629.02;77.625
629.59;53.500
630.17;72.625
630.74;71.500
631.31;63.625
631.88;91.000
632.46;51.125
633.03;64.000
633.60;61.125
634.17;75.000
634.74;91.625
635.32;76.000
635.89;59.625
636.46;90.500
637.03;77.625
637.60;91.500
638.18;80.125
638.75;52.500
639.32;87.625
639.89;61.500
640.46;96.125
641.03;88.000
641.61;75.125
642.18;82.000
642.75;75.625
643.32;106.50
643.89;86.125
644.46;75.000
645.03;64.625
645.60;74.000
646.18;81.625
646.75;75.000
647.32;87.625
647.89;71.500
648.46;76.625
649.03;85.000
649.60;69.125
650.17;81.000
650.74;85.125
651.31;71.500
651.89;76.625
652.46;84.000
653.03;63.125
653.60;95.000
654.17;65.625
654.74;76.500
655.31;73.125
655.88;73.000
656.45;81.625
657.02;64.500
657.59;98.625
658.16;65.000
658.73;89.625
659.30;79.000
659.87;107.63
660.44;101.00
661.01;94.125
661.58;102.00
662.15;60.125
662.72;99.500
663.29;87.625
663.86;89.500
664.43;81.625
665.00;91.500
665.57;92.125
666.14;95.000
666.71;81.625
667.28;98.000
667.85;84.625
668.42;85.000
668.99;87.625
669.56;84.500
670.13;94.125
670.70;72.500
671.27;66.125
671.84;92.500
672.41;91.625
672.98;91.000
673.54;80.125
674.11;77.500
674.68;92.125
675.25;86.500
675.82;90.125
676.39;84.000
676.96;101.13
677.53;90.500
678.10;101.13
678.67;102.00
679.23;85.625
679.80;85.500
680.37;90.625
680.94;93.500
681.51;117.13
682.08;115.50
682.65;97.125
683.21;99.500
683.78;104.63
684.35;88.500
684.92;84.625
685.49;93.000
686.06;116.63
686.62;110.00
687.19;108.63
687.76;97.000
688.33;81.625
688.90;75.000
689.46;82.125
690.03;98.500
690.60;120.13
691.17;104.00
691.74;102.13
692.30;110.50
692.87;87.625
693.44;99.500
694.01;109.13
694.57;111.50
695.14;119.63
695.71;101.50
696.28;100.13
696.84;108.00
697.41;111.13
697.98;119.00
698.55;108.13
699.11;111.50
699.68;114.13
700.25;105.50
700.82;125.63
701.38;108.50
701.95;88.625
702.52;115.00
703.08;123.63
703.65;125.00
704.22;134.63
704.78;114.50
705.35;133.63
705.92;106.50
706.48;122.63
707.05;106.00
707.62;112.63
708.18;110.50
708.75;135.13
709.32;136.00
709.88;108.63
710.45;128.00
711.02;98.625
711.58;115.50
712.15;128.63
712.72;125.00
713.28;118.63
713.85;115.50
714.41;111.13
714.98;104.50
715.55;115.63
716.11;85.000
716.68;99.125
717.24;89.000
717.81;89.125
718.38;96.000
718.94;89.625
719.51;102.00
720.07;107.13
720.64;90.500
721.20;111.63
721.77;119.50
722.33;94.125
722.90;95.500
723.47;95.125
724.03;113.00
724.60;98.125
725.16;86.000
725.73;97.125
726.29;93.000
726.86;107.63
727.42;119.50
727.99;101.63
728.55;109.50
729.12;114.13
729.68;100.50
730.25;112.63
730.81;94.000
731.38;104.63
731.94;112.50
732.51;107.13
733.07;116.00
733.64;126.13
734.20;105.50
734.76;128.13
735.33;129.50
735.89;103.13
736.46;138.00
737.02;110.13
737.59;125.50
738.15;120.13
738.72;110.50
739.28;98.625
739.84;126.00
740.41;109.63
740.97;107.50
741.54;106.13
742.10;120.00
742.66;121.13
743.23;95.000
743.79;121.13
744.35;118.00
744.92;109.13
745.48;102.00
746.05;107.13
746.61;111.00
747.17;109.63
747.74;100.50
748.30;111.13
748.86;104.50
749.43;94.625
749.99;104.00
750.55;86.125
751.12;95.500
751.68;86.125
752.24;95.000
752.81;100.13
753.37;93.500
753.93;93.125
754.50;86.000
755.06;103.13
755.62;92.500
756.18;104.13
756.75;85.500
757.31;78.125
757.87;91.000
758.44;66.125
759.00;56.500
759.56;36.125
760.12;57.500
760.69;52.625
761.25;27.000
761.81;47.625
762.37;48.000
762.94;43.125
763.50;50.000
764.06;55.125
764.62;55.000
765.18;81.625
765.75;71.000
766.31;74.625
766.87;63.000
767.43;77.625
767.99;69.500
768.56;63.125
769.12;78.500
769.68;78.125
770.24;86.500
770.80;79.125
771.36;80.000
771.93;74.125
772.49;79.000
773.05;75.625
773.61;63.500
774.17;65.125
774.73;61.500
775.29;73.625
775.86;82.500
776.42;65.125
776.98;79.500
777.54;74.625
778.10;69.500
778.66;91.125
779.22;86.000
779.78;74.125
780.34;69.500
780.91;80.125
781.47;53.000
782.03;60.125
782.59;70.000
783.15;86.125
783.71;55.500
784.27;74.125
784.83;71.500
785.39;48.625
785.95;76.000
786.51;69.625
787.07;76.000
787.63;80.125
788.19;74.500
788.75;69.125
789.31;66.000
789.87;52.125
790.43;57.500
790.99;63.125
791.55;69.000
792.11;62.625
792.67;65.500
793.23;62.125
793.79;62.500
794.35;61.625
794.91;65.000
795.47;65.625
796.03;66.500
796.59;72.625
797.15;62.000
797.71;65.125
798.27;59.500
798.83;67.125
799.39;51.500
799.95;76.625
800.51;60.000
801.07;54.625
801.63;70.500
802.19;55.125
802.75;70.000
803.30;57.125
803.86;48.000
804.42;65.125
804.98;66.000
805.54;56.125
806.10;57.000
806.66;65.625
807.22;64.500
807.78;63.125
808.33;45.000
808.89;60.125
809.45;50.000
810.01;53.625
810.57;52.000
811.13;52.625
811.69;42.500
812.24;50.125
812.80;41.500
813.36;59.125
813.92;52.000
814.48;53.125
815.03;50.500
815.59;44.625
816.15;32.000
816.71;39.125
817.27;27.000
817.82;47.625
818.38;40.000
818.94;36.125
819.50;65.000
820.06;52.625
820.61;37.000
821.17;34.125
821.73;47.000
822.29;44.625
822.84;31.000
823.40;57.125
823.96;43.000
824.52;50.625
825.07;44.500
825.63;47.125
826.19;36.000
826.74;42.625
827.30;38.500
827.86;56.125
828.42;46.000
828.97;59.125
829.53;16.500
830.09;39.625
830.64;41.500
831.20;47.125
831.76;48.500
832.31;38.625
832.87;45.000
833.43;38.625
833.98;56.500
834.54;62.625
835.10;32.500
835.65;50.125
836.21;46.000
836.77;49.625
837.32;46.000
837.88;35.125
838.43;30.000
838.99;63.125
839.55;39.000
840.10;49.625
840.66;50.500
841.21;56.625
841.77;53.000
842.33;43.125
842.88;42.000
843.44;49.625
843.99;37.000
844.55;37.125
845.11;61.500
845.66;40.125
846.22;46.500
846.77;35.625
847.33;31.000
847.88;42.625
848.44;31.500
848.99;39.625
849.55;54.500
850.10;25.125
850.66;40.500
851.21;31.125
851.77;42.000
852.32;44.625
852.88;15.000
853.43;53.125
853.99;45.500
854.54;44.625
855.10;50.500
855.65;41.125
856.21;31.500
856.76;54.625
857.32;38.000
857.87;46.125
858.43;48.000
858.98;45.125
859.54;29.500
860.09;40.625
860.64;33.500
861.20;39.625
861.75;50.000
862.31;29.125
862.86;42.000
863.41;53.625
863.97;47.000
864.52;41.625
865.08;37.000
865.63;52.625
866.18;43.500
866.74;37.125
867.29;44.500
867.85;31.625
868.40;7.0000
868.95;41.125
869.51;35.500
870.06;46.125
870.61;51.000
871.17;34.625
871.72;48.000
872.27;36.625
872.83;42.500
873.38;40.125
873.93;44.000
874.49;48.625
875.04;48.500
875.59;53.125
876.15;52.000
876.70;29.625
877.25;29.000
877.80;39.125
878.36;34.000
878.91;38.125
879.46;57.500
880.02;51.625
880.57;38.500
881.12;44.125
881.67;44.000
882.23;37.625
882.78;50.500
883.33;42.625
883.88;45.500
884.44;50.625
884.99;41.500
885.54;41.125
886.09;28.000
886.64;37.125
887.20;50.500
887.75;40.125
888.30;63.000
888.85;47.125
889.40;47.500
889.96;42.125
890.51;40.500
891.06;41.125
891.61;50.500
892.16;39.125
892.71;27.500
893.27;31.125
893.82;36.000
894.37;25.625
894.92;26.000
895.47;26.125
896.02;37.000
896.57;50.625
897.13;56.500
897.68;31.625
898.23;39.500
898.78;25.625
899.33;29.500
899.88;41.125
900.43;30.500
900.98;38.625
901.53;21.000
902.08;33.125
902.63;28.500
903.19;21.125
903.74;18.000
904.29;35.625
904.84;39.500
905.39;35.625
905.94;46.500
906.49;23.125
907.04;34.000
907.59;31.125
908.14;21.000
908.69;24.625
909.24;50.000
909.79;40.625
910.34;36.000
910.89;27.125
911.44;24.000
911.99;26.125
912.54;18.000
913.09;26.625
913.64;35.500
914.19;32.625
914.74;24.500
915.29;24.625
915.84;7.5000
916.39;14.125
916.94;31.000
917.49;16.125
918.04;38.000
918.58;29.125
919.13;18.500
919.68;32.625
920.23;8.0000
920.78;33.125
921.33;30.000
921.88;26.125
922.43;35.000
922.98;30.625
923.53;34.500
924.08;33.625
924.62;19.000
925.17;12.125
925.72;29.500
926.27;17.625
926.82;29.500
927.37;12.125
927.92;7.0000
928.46;19.125
929.01;9.5000
929.56;18.625
930.11;16.500
930.66;-7.3750
931.21;27.000
931.75;17.125
932.30;6.5000
932.85;8.6250
933.40;-7.0000
933.95;-4.8750
934.49;-1.0000
935.04;4.6250
935.59;12.500
936.14;4.1250
936.69;15.500
937.23;10.625
937.78;-3.5000
938.33;5.1250
938.88;15.500
939.42;23.125
939.97;15.000
940.52;19.625
941.07;10.500
941.61;20.125
942.16;-1.5000
942.71;11.125
943.25;14.500
943.80;3.6250
944.35;23.000
944.90;-2.8750
945.44;1.5000
945.99;16.625
946.54;-5.0000
947.08;19.625
947.63;19.500
948.18;-1.3750
948.72;15.000
949.27;15.625
949.82;-6.5000
950.36;20.625
950.91;7.5000
951.46;10.125
952.00;10.0000
952.55;5.6250
953.09;27.500
953.64;-2.3750
954.19;8.5000
954.73;1.1250
955.28;5.0000
955.82;16.625
956.37;25.000
956.92;9.1250
957.46;18.500
958.01;8.6250
958.55;-6.5000
959.10;24.625
959.65;2.5000
960.19;4.1250
960.74;11.000
961.28;-1.8750
961.83;22.000
962.37;11.625
962.92;15.000
963.46;22.125
964.01;11.500
964.55;10.625
965.10;15.000
965.64;11.625
966.19;16.500
966.73;11.625
967.28;8.0000
967.82;25.625
968.37;17.500
968.91;3.1250
969.46;24.500
970.00;26.125
970.55;19.000
971.09;15.125
971.64;18.500
972.18;19.625
972.73;18.500
973.27;17.125
973.82;12.000
974.36;23.625
974.90;17.500
975.45;11.625
975.99;12.500
976.54;2.1250
977.08;18.500
977.62;9.1250
978.17;7.5000
978.71;5.1250
979.26;21.500
979.80;15.125
980.34;29.500
980.89;24.125
981.43;5.5000
981.97;19.625
982.52;8.0000
983.06;20.625
983.61;9.0000
984.15;8.6250
984.69;-5.5000
985.24;17.625
985.78;10.500
986.32;24.625
986.87;21.500
987.41;6.1250
987.95;7.0000
988.49;10.125
989.04;11.000
989.58;6.1250
990.12;18.500
990.67;16.625
991.21;30.000
991.75;25.125
992.29;11.000
992.84;9.1250
993.38;17.500
993.92;12.125
994.46;1.0000
995.01;4.6250
995.55;9.0000
996.09;2.1250
996.63;-4.5000
997.18;0.6250
997.72;6.0000
998.26;13.125
998.80;21.000
999.34;8.1250
999.89;10.500
1000.43;21.125
1000.97;0
1001.51;11.125
1002.05;-13.000
1002.60;18.125
1003.14;24.000
1003.68;16.625
1004.22;16.500
1004.76;12.625
1005.30;16.000
1005.84;1.6250
1006.39;8.5000
1006.93;16.125
1007.47;17.500
1008.01;6.6250
1008.55;4.5000
1009.09;20.125
1009.63;12.500
1010.17;15.625
1010.72;-2.5000
1011.26;11.125
1011.80;25.500
1012.34;19.625
1012.88;7.0000
1013.42;13.625
1013.96;5.5000
1014.50;4.6250
1015.04;20.500
1015.58;6.6250
1016.12;8.0000
1016.66;15.125
1017.20;5.5000
1017.74;8.6250
1018.28;12.500
1018.82;10.625
1019.36;9.5000
1019.90;8.6250
1020.44;0.5000
1020.98;15.125
1021.52;13.500
1022.06;8.6250
1022.60;9.5000
1023.14;10.625
1023.68;-7.0000
1024.22;10.625
1024.76;7.0000
1025.30;13.625
1025.84;11.500
1026.38;9.1250
1026.92;21.500
1027.46;-1.3750
1028.00;8.0000
1028.54;-0.3750
1029.08;-5.0000
1029.62;-3.3750
1030.16;10.500
1030.70;-0.8750
1031.23;6.5000
1031.77;6.1250
1032.31;-4.0000
1032.85;13.625
1033.39;-1.0000
1033.93;19.625
1034.47;10.500
1035.01;7.1250
1035.54;12.500
1036.08;3.6250
1036.62;4.0000
1037.16;13.625
1037.70;1.0000
1038.24;4.1250
1038.78;17.000
1039.31;11.125
1039.85;27.000
1040.39;9.1250
1040.93;-9.0000
1041.47;11.125
1042.00;0.5000
1042.54;13.125
1043.08;10.0000
1043.62;6.1250
1044.16;12.000
1044.69;11.125
1045.23;0.5000
1045.77;14.625
1046.31;22.000
1046.84;4.1250
1047.38;10.500
1047.92;-3.3750
1048.46;17.000
1048.99;-0.8750
1049.53;-16.500
1050.07;40.625
1050.61;1.5000
1051.14;13.125
1051.68;2.0000
1052.22;7.1250
1052.75;-1.5000
1053.29;4.1250
1053.83;1.5000
1054.36;6.1250
1054.90;10.500
1055.44;10.125
1055.97;11.000
1056.51;2.1250
1057.05;10.0000
1057.58;11.625
1058.12;-1.0000
1058.66;17.125
1059.19;4.5000
1059.73;-2.3750
1060.27;27.000
1060.80;-6.8750
1061.34;-4.0000
1061.87;4.6250
1062.41;26.500
1062.95;8.1250
1063.48;6.0000
1064.02;-2.3750
1064.55;10.500
1065.09;-1.8750
1065.63;17.000
1066.16;9.1250
1066.70;-5.5000
1067.23;7.6250
1067.77;-3.5000
1068.30;-1.3750
1068.84;11.500
1069.37;15.125
1069.91;-11.000
1070.44;-2.8750
1070.98;7.0000
1071.52;5.6250
1072.05;11.500
1072.59;-3.3750
1073.12;-2.0000
1073.66;-5.8750
1074.19;15.500
1074.73;2.6250
1075.26;-2.0000
1075.79;12.625
1076.33;1.5000
1076.86;-0.8750
1077.40;12.500
1077.93;-2.3750
1078.47;-8.5000
1079.00;-3.3750
1079.54;7.5000
1080.07;2.6250
1080.60;12.500
1081.14;-2.3750
1081.67;-1.5000
1082.21;9.6250
1082.74;11.500
1083.28;9.1250
1083.81;0
1084.34;4.6250
1084.88;-15.000
1085.41;16.125
1085.94;15.000
1086.48;2.1250
1087.01;-24.000
1087.55;5.1250
1088.08;-9.0000
1088.61;-5.3750
1089.15;12.500
1089.68;-1.8750
1090.21;7.0000
1090.75;-12.375
1091.28;4.5000
1091.81;3.6250
1092.35;8.5000
1092.88;-3.8750
1093.41;10.500
1093.94;12.125
1094.48;7.0000
1095.01;-4.8750
1095.54;-12.500
1096.08;2.1250
1096.61;-4.5000
1097.14;4.6250
1097.67;-3.5000
1098.21;-7.3750
1098.74;5.0000
1099.27;-6.3750
1099.80;3.5000
1100.34;24.125
